timestamps,TP9,AF7,AF8,TP10,Right AUX
1700209053.949,-67.383,-42.480,-29.297,-38.086,0.000
1700209053.953,-60.547,-42.969,-29.297,-45.410,0.000
1700209053.957,-17.578,-41.504,-36.621,-37.109,0.000
1700209053.961,-25.879,-43.457,-44.922,-37.598,0.000
1700209053.964,-56.641,-43.457,-44.922,-46.387,0.000
1700209053.968,-44.434,-49.805,-37.109,-30.762,0.000
1700209053.972,-2.441,-44.434,-33.691,-14.160,0.000
1700209053.976,-0.488,-41.016,-24.902,-19.531,0.000
1700209053.980,-33.203,-47.852,-23.438,-24.414,0.000
1700209053.984,-43.945,-36.133,-35.645,-31.738,0.000
1700209053.988,-14.648,-37.598,-38.574,-25.391,0.000
1700209053.992,0.977,-35.156,-33.691,-14.160,0.000
1700209053.996,-20.996,-29.297,-26.855,-22.461,0.000
1700209054.000,-45.898,-40.039,-32.715,-35.645,0.000
1700209054.004,-20.996,-37.598,-32.227,-20.020,0.000
1700209054.007,9.766,-33.691,-28.320,-9.277,0.000
1700209054.011,-20.508,-41.504,-30.762,-25.879,0.000
1700209054.015,-60.547,-46.875,-32.715,-39.551,0.000
1700209054.019,-43.457,-45.410,-33.691,-32.227,0.000
1700209054.023,3.906,-45.410,-29.297,-13.672,0.000
1700209054.027,-10.742,-41.016,-27.344,-16.602,0.000
1700209054.031,-57.617,-36.133,-31.250,-38.574,0.000
1700209054.035,-53.711,-39.551,-29.785,-38.086,0.000
1700209054.039,-2.930,-38.574,-28.320,-17.090,0.000
1700209054.043,4.883,-42.969,-25.879,-12.207,0.000
1700209054.047,-33.203,-38.574,-22.461,-22.461,0.000
1700209054.050,-52.246,-33.203,-18.555,-30.273,0.000
1700209054.054,-17.090,-42.480,-27.832,-21.973,0.000
1700209054.058,3.418,-47.363,-35.645,-13.672,0.000
1700209054.062,-20.996,-47.363,-28.320,-16.602,0.000
1700209054.066,-45.410,-49.316,-21.973,-23.926,0.000
1700209054.070,-24.414,-53.711,-20.020,-20.020,0.000
1700209054.074,4.883,-50.781,-21.484,-6.836,0.000
1700209054.078,-3.906,-34.668,-19.531,-14.648,0.000
1700209054.082,-35.645,-28.809,-19.043,-28.809,0.000
1700209054.086,-40.039,-34.180,-25.391,-25.391,0.000
1700209054.089,-5.859,-39.062,-27.344,-20.020,0.000
1700209054.093,-8.789,-46.875,-27.832,-19.043,0.000
1700209054.097,-44.434,-48.340,-37.109,-29.297,0.000
1700209054.101,-43.945,-47.363,-34.668,-38.574,0.000
1700209054.105,0.977,-40.039,-25.879,-16.113,0.000
1700209054.109,12.695,-36.621,-23.926,-4.395,0.000
1700209054.113,-20.020,-48.340,-27.832,-10.742,0.000
1700209054.117,-40.039,-56.641,-26.855,-16.113,0.000
1700209054.121,-8.789,-41.504,-21.973,-9.277,0.000
1700209054.125,13.184,-33.203,-23.438,0.488,0.000
1700209054.129,-17.090,-41.992,-30.273,-17.578,0.000
1700209054.132,-45.898,-39.062,-29.785,-32.715,0.000
1700209054.136,-20.996,-39.062,-26.855,-20.020,0.000
1700209054.140,17.090,-40.527,-27.344,-7.812,0.000
1700209054.144,0.000,-41.016,-29.785,-25.879,0.000
1700209054.148,-39.062,-41.016,-33.203,-45.410,0.000
1700209054.152,-33.691,-44.434,-31.738,-33.203,0.000
1700209054.156,15.137,-46.387,-34.668,-6.836,0.000
1700209054.160,10.742,-40.039,-40.039,-13.184,0.000
1700209054.164,-33.203,-36.621,-37.598,-40.039,0.000
1700209054.168,-43.457,-44.434,-36.621,-47.363,0.000
1700209054.171,-4.883,-44.434,-36.621,-22.949,0.000
1700209054.175,16.602,-30.273,-35.156,-8.789,0.000
1700209054.179,-21.484,-33.203,-35.156,-26.367,0.000
1700209054.183,-53.223,-39.062,-32.227,-36.621,0.000
1700209054.187,-21.484,-43.457,-34.180,-25.879,0.000
1700209054.191,4.883,-51.758,-30.762,-25.879,0.000
1700209054.195,-21.973,-58.105,-25.391,-34.180,0.000
1700209054.199,-57.129,-56.641,-26.855,-47.852,0.000
1700209054.203,-41.016,-52.734,-21.484,-47.852,0.000
1700209054.207,-4.395,-49.805,-14.648,-28.809,0.000
1700209054.211,-17.090,-48.340,-20.996,-31.250,0.000
1700209054.214,-52.246,-57.129,-23.926,-42.969,0.000
1700209054.218,-58.594,-59.082,-20.996,-34.180,0.000
1700209054.222,-20.508,-47.363,-21.973,-18.555,0.000
1700209054.226,-14.160,-47.852,-25.879,-27.344,0.000
1700209054.230,-42.480,-58.594,-26.367,-37.109,0.000
1700209054.234,-55.176,-54.688,-20.020,-44.922,0.000
1700209054.238,-23.438,-44.922,-20.508,-34.180,0.000
1700209054.242,0.977,-48.340,-21.973,-19.531,0.000
1700209054.246,-23.926,-52.246,-26.855,-33.691,0.000
1700209054.250,-52.246,-57.617,-30.762,-48.340,0.000
1700209054.254,-31.738,-56.641,-26.855,-35.156,0.000
1700209054.257,1.465,-44.434,-26.855,-28.809,0.000
1700209054.261,-11.719,-49.805,-25.879,-27.832,0.000
1700209054.265,-45.898,-64.453,-19.531,-23.926,0.000
1700209054.269,-43.457,-58.594,-21.973,-30.762,0.000
1700209054.273,-6.348,-48.828,-27.344,-19.043,0.000
1700209054.277,-7.324,-46.387,-25.391,-17.090,0.000
1700209054.281,-41.504,-43.457,-23.438,-33.203,0.000
1700209054.285,-51.270,-44.922,-23.926,-46.387,0.000
1700209054.289,-12.695,-53.711,-23.438,-29.785,0.000
1700209054.293,-3.418,-60.059,-24.902,-15.137,0.000
1700209054.297,-40.527,-53.223,-29.297,-29.297,0.000
1700209054.300,-59.570,-43.945,-24.414,-40.039,0.000
1700209054.304,-21.484,-42.969,-21.484,-27.832,0.000
1700209054.308,0.488,-41.504,-26.367,-17.090,0.000
1700209054.312,-27.344,-47.363,-24.902,-24.414,0.000
1700209054.316,-55.176,-58.594,-22.949,-34.180,0.000
1700209054.320,-33.203,-54.688,-21.484,-27.832,0.000
1700209054.324,1.465,-50.293,-22.461,-13.184,0.000
1700209054.328,-18.066,-43.945,-24.902,-29.785,0.000
1700209054.332,-49.316,-42.480,-24.414,-43.457,0.000
1700209054.336,-44.434,-43.457,-24.414,-32.227,0.000
1700209054.339,-4.883,-45.898,-29.297,-18.555,0.000
1700209054.343,14.160,-45.410,-34.668,-14.648,0.000
1700209054.347,-30.273,-41.992,-28.320,-34.668,0.000
1700209054.351,-70.312,-47.363,-21.973,-59.570,0.000
1700209054.355,-27.832,-55.176,-23.926,-33.203,0.000
1700209054.359,-16.113,-59.082,-24.414,-27.344,0.000
1700209054.363,-50.293,-55.176,-23.438,-43.457,0.000
1700209054.367,-64.453,-54.199,-22.949,-41.992,0.000
1700209054.371,-35.645,-55.176,-23.438,-30.762,0.000
1700209054.375,-8.301,-48.828,-20.996,-23.438,0.000
1700209054.379,-30.762,-52.246,-17.578,-38.574,0.000
1700209054.382,-62.012,-54.199,-19.531,-47.852,0.000
1700209054.386,-45.898,-47.852,-20.508,-40.039,0.000
1700209054.390,2.930,-47.363,-16.113,-23.438,0.000
1700209054.394,1.465,-52.734,-23.438,-19.531,0.000
1700209054.398,-39.551,-55.664,-23.438,-31.738,0.000
1700209054.402,-38.086,-62.500,-16.113,-26.855,0.000
1700209054.406,0.000,-60.547,-17.578,-11.230,0.000
1700209054.410,-4.395,-46.387,-23.926,-18.555,0.000
1700209054.414,-41.992,-47.852,-25.879,-31.738,0.000
1700209054.418,-53.223,-55.176,-20.020,-34.668,0.000
1700209054.422,-20.996,-53.711,-22.949,-22.949,0.000
1700209054.425,0.000,-50.781,-24.902,-16.602,0.000
1700209054.429,-26.367,-51.758,-18.555,-24.414,0.000
1700209054.433,-62.012,-48.340,-21.973,-39.551,0.000
1700209054.437,-36.133,-53.711,-24.902,-32.227,0.000
1700209054.441,2.930,-52.734,-22.461,-8.789,0.000
1700209054.445,-15.625,-45.898,-21.484,-14.648,0.000
1700209054.449,-53.223,-49.316,-19.531,-40.527,0.000
1700209054.453,-45.410,-49.316,-21.973,-39.551,0.000
1700209054.457,-9.277,-46.875,-25.391,-24.414,0.000
1700209054.461,-14.648,-49.805,-27.344,-27.344,0.000
1700209054.464,-48.828,-48.828,-25.391,-39.062,0.000
1700209054.468,-50.781,-54.688,-21.484,-40.527,0.000
1700209054.472,-13.184,-54.199,-22.461,-27.344,0.000
1700209054.476,-9.277,-52.246,-28.320,-35.156,0.000
1700209054.480,-40.527,-52.246,-26.855,-53.223,0.000
1700209054.484,-56.641,-49.316,-21.484,-55.664,0.000
1700209054.488,-24.414,-53.223,-22.949,-35.156,0.000
1700209054.492,-7.812,-49.316,-19.043,-20.996,0.000
1700209054.496,-30.762,-46.387,-20.996,-32.715,0.000
1700209054.500,-52.734,-46.387,-26.855,-48.340,0.000
1700209054.504,-34.668,-46.387,-27.832,-37.598,0.000
1700209054.507,-0.488,-42.969,-30.273,-25.879,0.000
1700209054.511,-17.090,-47.363,-29.785,-35.645,0.000
1700209054.515,-49.316,-55.176,-25.879,-36.133,0.000
1700209054.519,-40.039,-51.758,-22.949,-23.926,0.000
1700209054.523,-2.930,-43.945,-22.461,-13.184,0.000
1700209054.527,-4.395,-42.480,-23.926,-18.066,0.000
1700209054.531,-37.109,-48.340,-22.949,-29.785,0.000
1700209054.535,-46.387,-53.223,-20.996,-31.738,0.000
1700209054.539,-19.043,-45.898,-22.461,-20.996,0.000
1700209054.543,-10.742,-35.156,-22.461,-17.578,0.000
1700209054.546,-40.039,-42.480,-19.043,-27.344,0.000
1700209054.550,-62.988,-49.316,-20.508,-38.086,0.000
1700209054.554,-29.785,-37.598,-25.391,-29.785,0.000
1700209054.558,-3.418,-39.062,-28.809,-20.996,0.000
1700209054.562,-26.367,-46.875,-26.855,-31.250,0.000
1700209054.566,-51.270,-37.598,-21.484,-41.016,0.000
1700209054.570,-40.039,-36.133,-22.949,-37.109,0.000
1700209054.574,-8.789,-48.340,-24.902,-23.926,0.000
1700209054.578,-15.625,-47.363,-22.949,-33.691,0.000
1700209054.582,-56.152,-37.598,-22.949,-44.922,0.000
1700209054.586,-59.570,-39.551,-21.973,-38.574,0.000
1700209054.589,-21.484,-45.410,-19.531,-27.832,0.000
1700209054.593,-9.766,-49.316,-18.066,-18.555,0.000
1700209054.597,-41.992,-45.898,-25.391,-28.809,0.000
1700209054.601,-57.617,-31.250,-28.320,-42.969,0.000
1700209054.605,-7.812,-28.320,-20.508,-21.484,0.000
1700209054.609,7.812,-38.086,-20.508,-17.578,0.000
1700209054.613,-34.668,-41.016,-25.391,-34.668,0.000
1700209054.617,-59.082,-45.410,-27.344,-46.875,0.000
1700209054.621,-14.160,-51.758,-21.484,-21.484,0.000
1700209054.625,19.043,-41.992,-19.043,-0.488,0.000
1700209054.629,-28.809,-32.227,-22.461,-39.062,0.000
1700209054.632,-70.312,-40.039,-31.738,-62.012,0.000
1700209054.636,-39.551,-43.945,-33.691,-36.133,0.000
1700209054.640,-8.301,-43.457,-28.320,-20.996,0.000
1700209054.644,-22.461,-47.852,-30.273,-41.992,0.000
1700209054.648,-56.641,-36.621,-29.785,-61.035,0.000
1700209054.652,-65.430,-35.156,-34.180,-61.035,0.000
1700209054.656,-18.066,-41.016,-31.738,-23.438,0.000
1700209054.660,-4.883,-38.574,-24.902,-10.742,0.000
1700209054.664,-40.039,-40.527,-23.926,-32.227,0.000
1700209054.668,-59.082,-40.527,-25.391,-33.691,0.000
1700209054.671,-20.508,-41.504,-31.738,-12.207,0.000
1700209054.675,-2.930,-39.062,-33.691,-6.348,0.000
1700209054.679,-33.203,-37.109,-28.320,-28.320,0.000
1700209054.683,-56.152,-45.410,-25.391,-34.180,0.000
1700209054.687,-36.621,-45.410,-27.344,-20.508,0.000
1700209054.691,-12.695,-43.945,-29.785,-18.066,0.000
1700209054.695,-34.180,-46.387,-34.180,-31.738,0.000
1700209054.699,-72.266,-49.316,-32.715,-45.898,0.000
1700209054.703,-61.523,-56.152,-36.133,-43.457,0.000
1700209054.707,-16.113,-53.711,-38.086,-25.879,0.000
1700209054.711,-20.508,-43.457,-28.320,-26.855,0.000
1700209054.714,-61.035,-44.434,-31.250,-45.898,0.000
1700209054.718,-67.871,-44.922,-37.109,-49.805,0.000
1700209054.722,-22.461,-38.574,-30.273,-29.297,0.000
1700209054.726,-5.371,-34.668,-26.367,-20.996,0.000
1700209054.730,-42.969,-37.109,-28.320,-31.738,0.000
1700209054.734,-59.570,-45.410,-29.297,-39.551,0.000
1700209054.738,-14.160,-40.039,-29.297,-26.367,0.000
1700209054.742,13.672,-37.109,-30.273,-7.812,0.000
1700209054.746,-14.648,-41.992,-35.645,-15.137,0.000
1700209054.750,-44.922,-41.016,-33.203,-31.738,0.000
1700209054.754,-18.066,-39.062,-27.344,-15.137,0.000
1700209054.757,17.090,-31.738,-23.926,3.906,0.000
1700209054.761,-0.488,-33.203,-21.484,-8.301,0.000
1700209054.765,-36.621,-40.527,-29.785,-25.391,0.000
1700209054.769,-37.109,-43.945,-30.273,-18.066,0.000
1700209054.773,-1.953,-46.387,-26.855,1.465,0.000
1700209054.777,-2.930,-49.805,-26.855,-13.184,0.000
1700209054.781,-42.480,-45.410,-27.832,-40.527,0.000
1700209054.785,-58.594,-38.574,-25.391,-47.852,0.000
1700209054.789,-23.438,-39.551,-23.438,-28.809,0.000
1700209054.793,-11.719,-38.574,-32.227,-27.832,0.000
1700209054.796,-44.922,-43.945,-33.691,-44.922,0.000
1700209054.800,-60.547,-48.340,-27.832,-41.992,0.000
1700209054.804,-29.297,-38.574,-26.855,-24.414,0.000
1700209054.808,-5.859,-39.551,-32.715,-22.461,0.000
1700209054.812,-30.762,-45.898,-31.738,-41.016,0.000
1700209054.816,-59.082,-52.734,-27.344,-47.363,0.000
1700209054.820,-30.273,-51.270,-24.902,-20.996,0.000
1700209054.824,-0.488,-35.156,-25.391,-8.301,0.000
1700209054.828,-16.113,-33.691,-19.531,-26.367,0.000
1700209054.832,-41.992,-38.086,-16.113,-41.504,0.000
1700209054.836,-39.551,-41.992,-27.344,-41.016,0.000
1700209054.839,-2.930,-41.992,-29.297,-22.461,0.000
1700209054.843,2.930,-39.551,-25.879,-16.113,0.000
1700209054.847,-36.133,-45.898,-25.391,-20.996,0.000
1700209054.851,-50.781,-43.945,-26.855,-30.762,0.000
1700209054.855,-11.230,-39.062,-28.320,-18.066,0.000
1700209054.859,-2.930,-47.852,-31.250,-9.766,0.000
1700209054.863,-33.203,-45.898,-28.320,-21.973,0.000
1700209054.867,-61.523,-41.016,-28.809,-41.992,0.000
1700209054.871,-44.922,-44.434,-30.273,-44.922,0.000
1700209054.875,-15.625,-45.410,-26.855,-26.367,0.000
1700209054.879,-29.785,-43.945,-27.832,-35.156,0.000
1700209054.882,-61.035,-46.875,-24.414,-49.316,0.000
1700209054.886,-55.176,-45.410,-27.832,-45.410,0.000
1700209054.890,-14.160,-45.898,-28.320,-22.461,0.000
1700209054.894,-10.742,-46.387,-14.648,-6.348,0.000
1700209054.898,-45.898,-33.691,-8.789,-20.020,0.000
1700209054.902,-59.570,-34.180,-18.066,-36.133,0.000
1700209054.906,-40.039,-46.875,-24.902,-30.762,0.000
1700209054.910,-40.039,-42.969,-19.531,-34.180,0.000
1700209054.914,-74.707,-27.832,-10.742,-44.922,0.000
1700209054.918,-105.957,-19.043,-6.836,-64.453,0.000
1700209054.921,-90.820,-15.625,-7.324,-70.312,0.000
1700209054.925,-90.332,-11.719,-9.277,-88.379,0.000
1700209054.929,-143.555,-6.348,-6.836,-131.348,0.000
1700209054.933,-194.824,-1.465,4.395,-168.457,0.000
1700209054.937,-193.359,3.906,0.000,-184.570,0.000
1700209054.941,-182.129,7.324,-1.953,-196.777,0.000
1700209054.945,-217.285,7.812,2.930,-221.680,0.000
1700209054.949,-265.137,14.160,-1.953,-249.023,0.000
1700209054.953,-254.395,15.137,0.000,-240.234,0.000
1700209054.957,-208.008,8.301,2.930,-210.938,0.000
1700209054.961,-204.102,14.160,-2.441,-203.613,0.000
1700209054.964,-225.586,9.277,-8.301,-210.449,0.000
1700209054.968,-212.891,-2.930,-10.742,-194.824,0.000
1700209054.972,-149.414,7.324,-18.066,-147.461,0.000
1700209054.976,-116.699,9.766,-20.508,-121.094,0.000
1700209054.980,-131.348,-7.812,-21.484,-124.023,0.000
1700209054.984,-127.441,-12.207,-32.715,-105.957,0.000
1700209054.988,-76.172,-8.789,-34.668,-71.289,0.000
1700209054.992,-37.109,-16.602,-32.227,-52.734,0.000
1700209054.996,-49.316,-28.809,-35.156,-45.410,0.000
1700209055.000,-61.523,-35.645,-41.992,-38.086,0.000
1700209055.003,-35.645,-45.410,-41.016,-28.809,0.000
1700209055.007,10.254,-48.340,-38.086,-5.859,0.000
1700209055.011,12.695,-46.875,-37.109,16.602,0.000
1700209055.015,-16.113,-56.641,-36.621,17.578,0.000
1700209055.019,-3.906,-61.523,-32.715,16.113,0.000
1700209055.023,46.387,-57.617,-31.250,33.691,0.000
1700209055.027,59.570,-67.383,-35.645,41.016,0.000
1700209055.031,26.855,-72.754,-38.086,29.785,0.000
1700209055.035,8.301,-61.523,-39.551,26.855,0.000
1700209055.039,51.270,-61.035,-43.945,46.875,0.000
1700209055.043,74.219,-74.219,-39.062,56.152,0.000
1700209055.046,46.387,-70.312,-38.086,44.922,0.000
1700209055.050,20.020,-63.965,-40.527,40.039,0.000
1700209055.054,55.176,-63.965,-35.156,55.664,0.000
1700209055.058,85.938,-59.082,-29.785,71.289,0.000
1700209055.062,50.781,-56.641,-32.715,58.105,0.000
1700209055.066,12.207,-59.082,-39.551,33.203,0.000
1700209055.070,28.809,-71.777,-38.086,32.227,0.000
1700209055.074,68.359,-69.336,-35.645,43.457,0.000
1700209055.078,53.711,-65.430,-33.203,44.922,0.000
1700209055.082,15.625,-66.406,-30.762,32.227,0.000
1700209055.086,26.855,-58.105,-31.738,34.180,0.000
1700209055.089,64.941,-59.082,-30.273,49.805,0.000
1700209055.093,60.547,-61.035,-32.227,39.062,0.000
1700209055.097,20.020,-66.895,-35.645,17.090,0.000
1700209055.101,6.836,-74.707,-31.250,19.043,0.000
1700209055.105,40.039,-57.617,-34.668,37.598,0.000
1700209055.109,56.641,-55.664,-34.180,31.738,0.000
1700209055.113,25.879,-62.012,-36.133,9.766,0.000
1700209055.117,-11.719,-57.129,-45.410,-19.043,0.000
1700209055.121,19.043,-61.035,-36.621,1.953,0.000
1700209055.125,53.711,-54.688,-25.879,41.504,0.000
1700209055.129,27.832,-48.828,-26.855,28.320,0.000
1700209055.132,-10.254,-49.316,-22.949,7.812,0.000
1700209055.136,7.324,-51.270,-25.879,10.742,0.000
1700209055.140,55.664,-53.223,-29.297,30.273,0.000
1700209055.144,29.297,-54.199,-28.809,12.207,0.000
1700209055.148,-13.184,-50.293,-26.367,-2.930,0.000
1700209055.152,-2.441,-48.828,-24.902,9.277,0.000
1700209055.156,32.227,-52.246,-28.320,20.508,0.000
1700209055.160,38.086,-53.711,-27.832,16.602,0.000
1700209055.164,5.371,-51.758,-24.414,4.395,0.000
1700209055.168,-10.254,-52.734,-23.926,-1.953,0.000
1700209055.171,26.367,-53.711,-21.484,8.301,0.000
1700209055.175,42.480,-46.875,-21.973,15.137,0.000
1700209055.179,15.137,-38.574,-22.949,-5.371,0.000
1700209055.183,-18.555,-48.828,-17.090,-19.043,0.000
1700209055.187,1.953,-59.082,-16.602,4.395,0.000
1700209055.191,38.574,-47.852,-17.090,20.020,0.000
1700209055.195,11.719,-45.898,-21.973,8.301,0.000
1700209055.199,-34.180,-54.688,-26.367,-18.066,0.000
1700209055.203,-35.645,-57.129,-29.297,-27.832,0.000
1700209055.207,5.371,-46.875,-27.832,-0.977,0.000
1700209055.211,0.488,-52.734,-29.297,-2.930,0.000
1700209055.214,-40.527,-55.664,-32.227,-25.879,0.000
1700209055.218,-43.457,-49.805,-34.180,-31.250,0.000
1700209055.222,-9.277,-58.105,-32.715,-10.254,0.000
1700209055.226,8.301,-61.035,-26.855,1.953,0.000
1700209055.230,-24.414,-49.316,-28.320,-19.531,0.000
1700209055.234,-47.852,-47.852,-25.391,-33.203,0.000
1700209055.238,-12.695,-52.734,-26.855,-19.531,0.000
1700209055.242,-3.418,-50.781,-34.668,-18.066,0.000
1700209055.246,-25.879,-51.758,-34.668,-29.785,0.000
1700209055.250,-49.805,-49.316,-32.715,-36.133,0.000
1700209055.253,-43.457,-49.805,-33.691,-35.645,0.000
1700209055.257,-0.977,-51.270,-31.250,-21.973,0.000
1700209055.261,-9.277,-45.898,-28.809,-20.508,0.000
1700209055.265,-50.293,-46.387,-31.250,-44.434,0.000
1700209055.269,-38.086,-46.387,-32.227,-34.180,0.000
1700209055.273,7.812,-50.781,-27.344,-3.418,0.000
1700209055.277,5.859,-41.016,-29.785,-10.742,0.000
1700209055.281,-38.086,-31.250,-31.738,-30.273,0.000
1700209055.285,-60.059,-44.434,-32.227,-42.480,0.000
1700209055.289,-17.578,-41.992,-32.715,-28.320,0.000
1700209055.293,2.441,-38.086,-29.297,-13.672,0.000
1700209055.296,-32.227,-50.293,-24.902,-19.043,0.000
1700209055.300,-52.246,-59.570,-25.391,-27.344,0.000
1700209055.304,-26.367,-51.270,-31.738,-26.367,0.000
1700209055.308,6.348,-42.969,-28.320,-8.789,0.000
1700209055.312,-10.742,-42.480,-25.879,-4.883,0.000
1700209055.316,-59.570,-53.711,-28.320,-30.273,0.000
1700209055.320,-46.875,-55.176,-28.809,-32.227,0.000
1700209055.324,-0.977,-38.086,-26.367,-7.812,0.000
1700209055.328,-13.184,-42.480,-34.180,-9.766,0.000
1700209055.332,-50.781,-48.828,-29.297,-31.250,0.000
1700209055.336,-53.711,-50.293,-22.949,-39.551,0.000
1700209055.339,-13.184,-52.734,-35.645,-20.020,0.000
1700209055.343,-0.977,-48.340,-33.203,-5.859,0.000
1700209055.347,-35.645,-44.434,-37.598,-24.902,0.000
1700209055.351,-55.176,-42.969,-36.133,-39.551,0.000
1700209055.355,-14.648,-48.340,-29.297,-21.484,0.000
1700209055.359,2.441,-49.805,-32.227,-12.695,0.000
1700209055.363,-31.738,-52.734,-32.715,-22.461,0.000
1700209055.367,-55.664,-49.805,-29.297,-29.297,0.000
1700209055.371,-20.996,-41.504,-22.461,-21.973,0.000
1700209055.375,6.836,-37.598,-20.020,-8.301,0.000
1700209055.378,-25.391,-33.691,-21.973,-21.484,0.000
1700209055.382,-54.199,-36.133,-20.996,-33.691,0.000
1700209055.386,-33.203,-40.039,-19.043,-27.344,0.000
1700209055.390,-1.465,-41.504,-17.090,-22.949,0.000
1700209055.394,-14.160,-45.898,-18.066,-17.090,0.000
1700209055.398,-44.922,-48.828,-22.461,-36.621,0.000
1700209055.402,-45.410,-52.734,-18.066,-41.016,0.000
1700209055.406,-1.465,-47.852,-17.578,-4.395,0.000
1700209055.410,0.977,-44.922,-25.391,-15.625,0.000
1700209055.414,-32.227,-47.852,-21.973,-31.738,0.000
1700209055.418,-43.945,-39.062,-17.578,-35.156,0.000
1700209055.421,-14.648,-34.180,-17.090,-22.461,0.000
1700209055.425,5.371,-39.062,-17.090,-12.695,0.000
1700209055.429,-29.297,-41.992,-24.414,-31.738,0.000
1700209055.433,-57.617,-45.898,-23.926,-34.668,0.000
1700209055.437,-25.391,-46.387,-20.020,-27.344,0.000
1700209055.441,2.930,-42.480,-16.602,-22.949,0.000
1700209055.445,-20.020,-44.922,-16.113,-28.809,0.000
1700209055.449,-51.758,-35.156,-20.020,-44.434,0.000
1700209055.453,-40.039,-35.156,-21.973,-42.969,0.000
1700209055.457,-0.977,-42.480,-21.973,-28.320,0.000
1700209055.461,2.930,-35.156,-22.461,-17.578,0.000
1700209055.464,-37.598,-35.645,-27.344,-27.832,0.000
1700209055.468,-52.734,-38.574,-27.344,-32.227,0.000
1700209055.472,-2.930,-33.691,-21.973,-20.508,0.000
1700209055.476,8.301,-37.109,-21.484,-17.090,0.000
1700209055.480,-30.273,-49.805,-19.043,-20.508,0.000
1700209055.484,-51.270,-52.734,-22.461,-30.273,0.000
1700209055.488,-18.066,-37.109,-25.391,-21.484,0.000
1700209055.492,3.418,-34.180,-24.414,-14.648,0.000
1700209055.496,-20.508,-49.316,-24.902,-24.414,0.000
1700209055.500,-45.410,-42.480,-24.414,-33.691,0.000
1700209055.504,-30.273,-39.062,-22.461,-28.320,0.000
1700209055.507,0.977,-41.992,-18.066,-14.160,0.000
1700209055.511,-15.625,-39.062,-22.949,-27.344,0.000
1700209055.515,-49.316,-40.527,-27.832,-42.480,0.000
1700209055.519,-44.922,-45.898,-22.461,-35.156,0.000
1700209055.523,-5.371,-40.527,-20.508,-15.625,0.000
1700209055.527,-2.930,-35.645,-20.996,-17.090,0.000
1700209055.531,-49.805,-42.969,-17.090,-44.922,0.000
1700209055.535,-49.316,-43.457,-20.508,-49.805,0.000
1700209055.539,6.348,-33.203,-15.625,-9.277,0.000
1700209055.543,16.113,-40.527,-6.836,2.930,0.000
1700209055.546,-14.160,-46.875,-13.672,-16.113,0.000
1700209055.550,-45.410,-34.180,-14.160,-24.414,0.000
1700209055.554,-25.879,-34.180,-19.043,-16.602,0.000
1700209055.558,7.812,-36.133,-28.320,-9.766,0.000
1700209055.562,-20.020,-29.297,-32.227,-27.344,0.000
1700209055.566,-61.035,-36.621,-21.484,-39.551,0.000
1700209055.570,-43.945,-43.457,-13.672,-26.855,0.000
1700209055.574,4.395,-35.156,-20.020,-12.695,0.000
1700209055.578,1.953,-38.086,-20.996,-15.137,0.000
1700209055.582,-39.551,-44.922,-17.578,-28.809,0.000
1700209055.586,-37.109,-43.945,-22.461,-30.762,0.000
1700209055.589,4.395,-30.762,-20.508,-6.836,0.000
1700209055.593,7.324,-24.414,-13.184,-18.555,0.000
1700209055.597,-49.805,-36.133,-15.625,-36.133,0.000
1700209055.601,-50.781,-35.156,-34.668,-20.996,0.000
1700209055.605,30.273,-22.949,-38.086,9.277,0.000
1700209055.609,27.832,-35.645,-16.113,6.836,0.000
1700209055.613,-33.691,-44.434,-13.672,-23.926,0.000
1700209055.617,-55.176,-37.598,-18.555,-28.320,0.000
1700209055.621,-17.090,-32.227,-16.602,-27.344,0.000
1700209055.625,13.184,-34.180,-20.020,-12.695,0.000
1700209055.628,-26.367,-39.062,-15.137,-24.414,0.000
1700209055.632,-66.895,-33.203,-18.555,-45.898,0.000
1700209055.636,-41.504,-28.809,-28.809,-41.992,0.000
1700209055.640,-15.137,-41.504,-31.738,-38.574,0.000
1700209055.644,-33.203,-62.500,-25.391,-37.109,0.000
1700209055.648,-44.922,-55.664,-21.973,-38.086,0.000
1700209055.652,-35.156,-45.898,-9.766,-33.691,0.000
1700209055.656,-7.324,-44.434,-6.348,-12.207,0.000
1700209055.660,19.043,-41.504,-19.043,8.301,0.000
1700209055.664,-20.020,-44.434,-19.043,-18.555,0.000
1700209055.668,-50.781,-38.574,-34.180,-57.129,0.000
1700209055.671,-12.207,-40.527,-41.992,-19.043,0.000
1700209055.675,-0.488,-53.223,-26.855,-4.395,0.000
1700209055.679,-41.016,-55.664,-4.395,-29.297,0.000
1700209055.683,-68.359,-33.203,-9.277,-31.738,0.000
1700209055.687,-30.273,-19.043,-24.902,-16.602,0.000
1700209055.691,3.418,-34.668,-18.066,-5.859,0.000
1700209055.695,-7.812,-39.551,-19.043,-19.043,0.000
1700209055.699,-39.551,-47.363,-20.508,-28.809,0.000
1700209055.703,-32.715,-42.480,1.465,-36.133,0.000
1700209055.707,14.160,-39.062,-15.625,-17.090,0.000
1700209055.710,-4.883,-54.199,-33.203,-13.672,0.000
1700209055.714,-21.973,-50.781,-29.785,-16.113,0.000
1700209055.718,-22.949,-30.762,-36.133,-14.648,0.000
1700209055.722,-0.977,-32.227,-24.902,-8.789,0.000
1700209055.726,17.090,-44.922,-12.207,-6.348,0.000
1700209055.730,-20.508,-34.180,-14.160,-20.508,0.000
1700209055.734,-40.039,-36.621,-20.508,-22.949,0.000
1700209055.738,-3.418,-47.852,-1.953,-9.766,0.000
1700209055.742,9.277,-48.828,-12.207,10.742,0.000
1700209055.746,-23.438,-46.387,-24.414,1.953,0.000
1700209055.750,-49.805,-54.688,-17.090,-11.719,0.000
1700209055.753,-29.785,-59.082,-18.066,-21.973,0.000
1700209055.757,-1.953,-57.617,-18.066,-25.391,0.000
1700209055.761,-3.906,-52.246,-23.438,2.441,0.000
1700209055.765,-28.320,-46.875,-26.367,-0.488,0.000
1700209055.769,-45.410,-47.852,-21.973,-28.320,0.000
1700209055.773,-8.789,-47.852,-25.391,-14.160,0.000
1700209055.777,9.766,-31.250,-28.320,8.789,0.000
1700209055.781,-38.086,-31.250,-31.738,-12.207,0.000
1700209055.785,-58.594,-47.363,-14.160,-16.113,0.000
1700209055.789,-7.324,-40.527,-15.137,-3.418,0.000
1700209055.793,7.324,-44.434,-25.391,-0.977,0.000
1700209055.796,-24.902,-53.223,-20.020,-5.371,0.000
1700209055.800,-49.805,-44.434,-23.926,-25.391,0.000
1700209055.804,8.789,-30.762,-31.738,6.836,0.000
1700209055.808,41.016,-32.227,-17.090,21.973,0.000
1700209055.812,-2.441,-37.109,-24.902,-12.207,0.000
1700209055.816,-33.203,-40.527,-25.879,-18.066,0.000
1700209055.820,-24.902,-23.438,-29.785,4.883,0.000
1700209055.824,0.977,-28.320,-38.574,18.066,0.000
1700209055.828,-18.555,-39.062,-23.926,-9.766,0.000
1700209055.832,-49.316,-28.809,-28.809,-29.297,0.000
1700209055.836,-79.102,-36.621,-11.230,-39.062,0.000
1700209055.839,-31.738,-46.387,-20.996,-11.230,0.000
1700209055.843,1.953,-45.410,-29.297,0.977,0.000
1700209055.847,-43.457,-54.199,-24.414,-37.598,0.000
1700209055.851,-56.152,-36.621,-36.621,-32.715,0.000
1700209055.855,-10.254,-25.391,-36.621,4.883,0.000
1700209055.859,18.066,-15.625,-38.574,0.000,0.000
1700209055.863,-28.809,-31.738,-2.441,-33.691,0.000
1700209055.867,-63.965,-56.641,-6.348,-37.109,0.000
1700209055.871,-17.578,-45.898,-39.062,-10.254,0.000
1700209055.875,16.602,-37.109,-10.742,-2.441,0.000
1700209055.878,-13.672,-41.016,-21.973,-9.277,0.000
1700209055.882,-61.523,-47.852,-27.832,-26.855,0.000
1700209055.886,-39.062,-46.875,-28.320,-16.113,0.000
1700209055.890,6.836,-48.828,-27.832,0.000,0.000
1700209055.894,-16.113,-44.922,-13.184,-45.410,0.000
1700209055.898,-42.480,-36.133,-22.949,-45.410,0.000
1700209055.902,-40.527,-30.762,-18.066,-11.230,0.000
1700209055.906,-15.137,-25.391,-14.160,-20.508,0.000
1700209055.910,10.254,-19.531,-34.668,3.906,0.000
1700209055.914,-15.137,-20.508,-40.039,7.324,0.000
1700209055.918,-59.082,-46.387,-32.227,-24.902,0.000
1700209055.921,-29.297,-54.688,-41.504,-22.461,0.000
1700209055.925,21.484,-45.410,-31.250,5.859,0.000
1700209055.929,-17.090,-34.668,-22.461,-5.371,0.000
1700209055.933,-55.176,-41.016,-23.926,-36.133,0.000
1700209055.937,-16.113,-48.828,-33.203,-17.578,0.000
1700209055.941,8.301,-39.551,-33.691,-3.906,0.000
1700209055.945,-5.859,-42.480,-30.762,-11.719,0.000
1700209055.949,-54.199,-26.855,-40.039,-41.992,0.000
1700209055.953,-59.082,-35.156,-27.832,-45.410,0.000
1700209055.957,0.977,-57.617,-2.441,-21.973,0.000
1700209055.960,2.441,-43.457,-15.625,-34.180,0.000
1700209055.964,-41.992,-31.250,-39.062,-26.367,0.000
1700209055.968,-55.176,-27.832,-29.785,-22.949,0.000
1700209055.972,-1.953,-39.551,-31.250,5.371,0.000
1700209055.976,-2.930,-40.039,-25.391,2.441,0.000
1700209055.980,-41.016,-44.434,-13.672,-32.715,0.000
1700209055.984,-56.152,-44.922,-17.090,-51.758,0.000
1700209055.988,-29.785,-31.250,-30.273,-30.273,0.000
1700209055.992,6.348,-41.016,-32.715,-3.418,0.000
1700209055.996,-28.809,-44.922,-26.855,-19.531,0.000
1700209056.000,-67.383,-41.016,-28.809,-45.410,0.000
1700209056.003,-45.898,-53.711,-33.691,-50.293,0.000
1700209056.007,-17.090,-51.270,-21.484,-27.832,0.000
1700209056.011,-27.344,-37.598,-25.879,-36.133,0.000
1700209056.015,-48.828,-49.316,-37.598,-39.551,0.000
1700209056.019,-47.363,-53.711,-28.320,-26.367,0.000
1700209056.023,-7.324,-45.898,-22.949,-23.926,0.000
1700209056.027,-18.555,-42.480,-32.715,-41.016,0.000
1700209056.031,-52.246,-42.969,-32.715,-37.598,0.000
1700209056.035,-41.016,-39.062,-23.926,-19.531,0.000
1700209056.039,-2.441,-36.133,-23.926,-18.066,0.000
1700209056.043,17.578,-42.480,-27.832,-7.812,0.000
1700209056.046,-14.160,-49.316,-25.879,-14.648,0.000
1700209056.050,-48.828,-46.387,-23.926,-28.320,0.000
1700209056.054,-18.066,-47.852,-31.738,-14.160,0.000
1700209056.058,15.625,-50.293,-18.066,-0.488,0.000
1700209056.062,-8.301,-41.992,-17.090,-16.113,0.000
1700209056.066,-40.527,-38.086,-31.738,-33.203,0.000
1700209056.070,-30.762,-35.156,-26.855,-23.926,0.000
1700209056.074,-0.488,-34.668,-28.809,-11.230,0.000
1700209056.078,-19.531,-42.480,-27.832,-16.602,0.000
1700209056.082,-61.035,-48.340,-33.203,-29.785,0.000
1700209056.085,-73.242,-36.133,-31.738,-40.039,0.000
1700209056.089,-20.996,-35.156,-25.879,-19.531,0.000
1700209056.093,-8.301,-57.129,-27.832,-13.184,0.000
1700209056.097,-57.617,-56.152,-26.367,-36.133,0.000
1700209056.101,-75.195,-48.340,-25.391,-46.875,0.000
1700209056.105,-26.367,-49.805,-30.762,-32.715,0.000
1700209056.109,1.953,-44.434,-29.785,-16.602,0.000
1700209056.113,-32.227,-33.691,-29.785,-25.879,0.000
1700209056.117,-53.223,-27.344,-23.926,-36.133,0.000
1700209056.121,-28.320,-34.668,-14.160,-14.160,0.000
1700209056.125,-6.348,-44.434,-21.484,-0.488,0.000
1700209056.128,-20.996,-49.805,-24.414,-17.578,0.000
1700209056.132,-50.781,-53.711,-16.602,-32.227,0.000
1700209056.136,-42.969,-43.945,-16.602,-20.996,0.000
1700209056.140,1.953,-43.945,-18.066,5.859,0.000
1700209056.144,-10.254,-47.363,-18.555,-7.324,0.000
1700209056.148,-48.340,-40.527,-23.438,-29.785,0.000
1700209056.152,-53.711,-39.551,-24.902,-25.879,0.000
1700209056.156,-17.090,-39.062,-18.066,-10.742,0.000
1700209056.160,-8.301,-36.621,-22.461,-13.672,0.000
1700209056.164,-36.621,-41.992,-20.020,-22.949,0.000
1700209056.168,-59.082,-44.922,-12.695,-22.461,0.000
1700209056.171,-29.785,-41.016,-10.742,-9.277,0.000
1700209056.175,2.930,-40.039,-12.695,-1.465,0.000
1700209056.179,-29.297,-36.621,-15.137,-15.625,0.000
1700209056.183,-62.012,-40.039,-13.672,-28.809,0.000
1700209056.187,-44.922,-40.039,-16.602,-25.391,0.000
1700209056.191,-13.184,-30.273,-17.090,-7.324,0.000
1700209056.195,-17.090,-30.273,-13.184,-8.301,0.000
1700209056.199,-54.688,-32.227,-14.648,-23.926,0.000
1700209056.203,-47.363,-31.738,-14.648,-17.578,0.000
1700209056.207,2.441,-31.250,-17.578,-10.254,0.000
1700209056.210,-4.883,-30.762,-18.555,-16.113,0.000
1700209056.214,-52.734,-36.621,-12.695,-36.621,0.000
1700209056.218,-64.941,-35.645,-18.555,-42.969,0.000
1700209056.222,-19.531,-32.715,-21.973,-11.230,0.000
1700209056.226,5.371,-35.156,-13.672,0.977,0.000
1700209056.230,-26.367,-40.527,-4.395,-9.277,0.000
1700209056.234,-59.082,-39.062,-5.371,-24.414,0.000
1700209056.238,-23.438,-33.203,-12.207,-18.066,0.000
1700209056.242,6.836,-35.645,-15.625,0.000,0.000
1700209056.246,-25.391,-37.598,-18.066,-15.137,0.000
1700209056.250,-58.594,-34.180,-20.996,-43.457,0.000
1700209056.253,-41.016,-41.504,-21.973,-36.133,0.000
1700209056.257,-0.977,-40.527,-20.996,-17.090,0.000
1700209056.261,-14.160,-36.621,-20.020,-21.973,0.000
1700209056.265,-54.199,-38.086,-22.461,-39.062,0.000
1700209056.269,-61.035,-39.062,-21.484,-37.598,0.000
1700209056.273,-16.113,-46.387,-16.602,-4.883,0.000
1700209056.277,-6.348,-44.922,-10.254,3.906,0.000
1700209056.281,-51.270,-39.551,-14.160,-22.461,0.000
1700209056.285,-72.266,-46.875,-20.020,-34.180,0.000
1700209056.289,-30.273,-48.340,-20.508,-17.090,0.000
1700209056.293,-2.441,-36.133,-17.578,-11.230,0.000
1700209056.296,-32.715,-29.297,-22.949,-35.156,0.000
1700209056.300,-45.410,-39.551,-28.809,-41.016,0.000
1700209056.304,-9.766,-41.016,-23.926,-6.836,0.000
1700209056.308,2.930,-41.016,-20.020,-6.836,0.000
1700209056.312,-32.227,-40.527,-20.020,-26.855,0.000
1700209056.316,-65.918,-39.062,-16.113,-33.203,0.000
1700209056.320,-48.828,-45.410,-21.973,-27.832,0.000
1700209056.324,-7.324,-51.758,-23.926,-8.789,0.000
1700209056.328,-15.137,-43.945,-16.113,-13.184,0.000
1700209056.332,-49.805,-32.715,-20.508,-25.391,0.000
1700209056.335,-39.551,-31.250,-22.949,-15.625,0.000
1700209056.339,9.766,-31.738,-19.043,-1.465,0.000
1700209056.343,23.926,-34.668,-18.555,1.465,0.000
1700209056.347,-10.254,-39.062,-20.508,-13.672,0.000
1700209056.351,-30.762,-38.574,-23.926,-27.344,0.000
1700209056.355,0.488,-40.039,-20.996,-4.883,0.000
1700209056.359,22.949,-41.016,-15.625,10.742,0.000
1700209056.363,-4.395,-41.016,-18.066,2.441,0.000
1700209056.367,-35.645,-44.434,-24.902,-2.441,0.000
1700209056.371,-11.230,-31.738,-20.020,11.230,0.000
1700209056.375,19.531,-21.484,-15.625,21.484,0.000
1700209056.378,-1.953,-28.320,-18.555,4.395,0.000
1700209056.382,-39.551,-32.227,-24.414,-15.137,0.000
1700209056.386,-31.250,-35.156,-19.531,-11.230,0.000
1700209056.390,4.883,-37.598,-15.137,-1.465,0.000
1700209056.394,-1.465,-37.598,-21.484,-3.418,0.000
1700209056.398,-38.086,-44.922,-26.367,-15.625,0.000
1700209056.402,-48.340,-45.898,-26.855,-29.297,0.000
1700209056.406,-5.859,-38.086,-27.344,-21.484,0.000
1700209056.410,8.301,-41.992,-27.344,-16.113,0.000
1700209056.414,-44.922,-43.457,-30.273,-42.480,0.000
1700209056.417,-73.730,-45.410,-26.367,-52.246,0.000
1700209056.421,-32.715,-41.992,-20.020,-38.086,0.000
1700209056.425,-14.648,-37.109,-19.531,-26.855,0.000
1700209056.429,-43.945,-46.387,-16.113,-31.738,0.000
1700209056.433,-67.383,-43.945,-21.484,-58.105,0.000
1700209056.437,-51.758,-40.527,-27.344,-53.223,0.000
1700209056.441,-11.719,-47.852,-16.113,-26.367,0.000
1700209056.445,-18.066,-43.457,-11.719,-38.086,0.000
1700209056.449,-58.594,-40.039,-21.484,-61.523,0.000
1700209056.453,-57.129,-45.898,-20.996,-56.152,0.000
1700209056.457,-12.207,-40.527,-13.672,-32.227,0.000
1700209056.460,-13.184,-38.086,-21.973,-38.086,0.000
1700209056.464,-58.594,-40.039,-27.344,-57.129,0.000
1700209056.468,-69.824,-36.621,-22.461,-61.523,0.000
1700209056.472,-35.156,-31.250,-28.320,-50.293,0.000
1700209056.476,-36.133,-27.344,-20.996,-53.223,0.000
1700209056.480,-69.336,-23.438,-13.184,-73.242,0.000
1700209056.484,-105.957,-18.555,-11.230,-92.285,0.000
1700209056.488,-100.098,-4.395,-8.301,-99.121,0.000
1700209056.492,-97.656,9.766,-8.789,-119.141,0.000
1700209056.496,-143.555,13.184,-18.555,-154.297,0.000
1700209056.500,-197.754,26.855,-17.090,-189.941,0.000
1700209056.503,-220.215,29.297,-6.836,-217.773,0.000
1700209056.507,-217.285,20.996,-19.531,-236.816,0.000
1700209056.511,-246.094,26.855,-30.762,-256.348,0.000
1700209056.515,-307.617,32.227,-27.832,-286.621,0.000
1700209056.519,-321.289,32.715,-27.832,-297.363,0.000
1700209056.523,-282.227,28.320,-21.973,-291.016,0.000
1700209056.527,-289.062,25.391,-13.184,-309.082,0.000
1700209056.531,-333.496,27.832,-15.625,-330.078,0.000
1700209056.535,-335.449,32.227,-19.531,-322.266,0.000
1700209056.539,-290.039,35.156,-15.137,-290.039,0.000
1700209056.542,-263.672,28.320,-20.508,-276.367,0.000
1700209056.546,-269.531,17.578,-28.320,-273.926,0.000
1700209056.550,-280.762,12.695,-21.973,-257.812,0.000
1700209056.554,-248.535,11.230,-14.648,-230.469,0.000
1700209056.558,-194.824,19.043,-13.184,-195.801,0.000
1700209056.562,-193.848,16.602,-13.184,-184.082,0.000
1700209056.566,-211.914,14.160,-20.508,-190.918,0.000
1700209056.570,-170.410,11.230,-31.738,-163.086,0.000
1700209056.574,-109.863,3.906,-29.297,-120.117,0.000
1700209056.578,-97.168,2.930,-28.320,-103.027,0.000
1700209056.582,-101.562,-13.184,-31.738,-92.773,0.000
1700209056.585,-76.172,-30.762,-37.598,-56.641,0.000
1700209056.589,-13.672,-32.715,-40.527,-17.090,0.000
1700209056.593,10.742,-30.273,-35.156,-0.977,0.000
1700209056.597,-13.184,-34.668,-35.645,-10.254,0.000
1700209056.601,-25.391,-50.781,-42.480,-12.207,0.000
1700209056.605,27.344,-54.199,-39.062,29.297,0.000
1700209056.609,62.012,-51.758,-32.715,50.293,0.000
1700209056.613,36.133,-62.012,-31.250,37.109,0.000
1700209056.617,21.973,-70.312,-32.715,33.203,0.000
1700209056.621,54.199,-71.777,-36.621,54.199,0.000
1700209056.625,89.844,-69.824,-37.598,72.754,0.000
1700209056.628,78.125,-71.289,-41.016,71.777,0.000
1700209056.632,41.992,-73.242,-37.109,64.453,0.000
1700209056.636,53.223,-76.660,-35.156,63.477,0.000
1700209056.640,104.004,-79.102,-39.062,84.473,0.000
1700209056.644,98.633,-85.938,-36.133,86.914,0.000
1700209056.648,50.293,-86.426,-35.156,65.918,0.000
1700209056.652,45.898,-73.242,-36.133,57.617,0.000
1700209056.656,76.172,-71.289,-37.109,70.312,0.000
1700209056.660,85.938,-70.801,-33.203,76.172,0.000
1700209056.664,63.965,-74.707,-29.297,69.336,0.000
1700209056.668,46.387,-78.613,-35.156,57.617,0.000
1700209056.671,72.266,-76.660,-35.156,69.336,0.000
1700209056.675,98.145,-71.777,-35.645,87.402,0.000
1700209056.679,83.496,-65.430,-34.668,78.613,0.000
1700209056.683,50.781,-62.012,-34.180,63.965,0.000
1700209056.687,64.453,-61.523,-33.691,71.289,0.000
1700209056.691,100.586,-65.430,-30.273,102.539,0.000
1700209056.695,79.590,-81.055,-33.203,89.355,0.000
1700209056.699,35.645,-73.242,-33.203,52.734,0.000
1700209056.703,40.527,-66.406,-34.180,50.293,0.000
1700209056.707,75.684,-69.336,-33.691,65.918,0.000
1700209056.710,77.148,-69.336,-30.273,68.359,0.000
1700209056.714,35.645,-70.312,-29.297,42.480,0.000
1700209056.718,15.625,-62.988,-24.414,33.203,0.000
1700209056.722,55.176,-59.082,-24.902,55.176,0.000
1700209056.726,69.824,-65.430,-24.902,50.781,0.000
1700209056.730,38.574,-67.871,-25.391,30.273,0.000
1700209056.734,15.625,-60.547,-26.367,22.461,0.000
1700209056.738,38.574,-63.477,-22.461,40.039,0.000
1700209056.742,61.035,-60.547,-23.438,49.316,0.000
1700209056.746,27.832,-67.871,-31.738,22.461,0.000
1700209056.750,-8.789,-80.078,-28.809,10.742,0.000
1700209056.753,12.695,-63.965,-24.414,26.367,0.000
1700209056.757,45.898,-57.617,-24.414,36.621,0.000
1700209056.761,21.973,-62.988,-23.438,19.531,0.000
1700209056.765,-16.113,-63.477,-22.461,4.883,0.000
1700209056.769,-11.719,-61.035,-17.578,9.277,0.000
1700209056.773,27.344,-56.641,-20.996,25.391,0.000
1700209056.777,30.273,-54.199,-20.020,20.996,0.000
1700209056.781,-2.441,-52.246,-17.578,0.977,0.000
1700209056.785,-21.484,-62.012,-20.508,-3.906,0.000
1700209056.789,7.812,-63.477,-23.926,5.371,0.000
1700209056.792,27.344,-57.617,-22.949,7.324,0.000
1700209056.796,3.418,-48.340,-17.578,0.977,0.000
1700209056.800,-27.344,-40.039,-21.973,-14.648,0.000
1700209056.804,-12.207,-45.898,-23.926,-9.277,0.000
1700209056.808,24.414,-46.387,-20.508,8.301,0.000
1700209056.812,6.836,-43.457,-19.043,2.930,0.000
1700209056.816,-27.344,-46.875,-19.043,-8.301,0.000
1700209056.820,-9.766,-45.898,-17.090,-3.418,0.000
1700209056.824,38.574,-43.945,-11.230,16.113,0.000
1700209056.828,36.621,-54.199,-14.160,25.879,0.000
1700209056.832,-7.324,-59.570,-20.508,4.395,0.000
1700209056.835,-22.949,-50.781,-16.602,-14.160,0.000
1700209056.839,8.301,-56.641,-18.066,0.000,0.000
1700209056.843,15.137,-50.293,-21.484,15.137,0.000
1700209056.847,-25.391,-37.109,-24.414,1.953,0.000
1700209056.851,-41.992,-35.645,-23.926,-9.277,0.000
1700209056.855,8.301,-40.039,-18.555,21.484,0.000
1700209056.859,20.020,-40.039,-24.902,20.508,0.000
1700209056.863,-28.320,-39.551,-29.297,-19.531,0.000
1700209056.867,-46.387,-45.410,-22.461,-28.320,0.000
1700209056.871,-34.668,-41.504,-22.949,-25.879,0.000
1700209056.875,-10.742,-47.363,-21.973,-23.926,0.000
1700209056.878,-11.230,-56.152,-22.949,-28.320,0.000
1700209056.882,-50.293,-35.645,-31.250,-41.992,0.000
1700209056.886,-43.457,-26.855,-30.762,-38.086,0.000
1700209056.890,7.324,-32.715,-27.344,-22.949,0.000
1700209056.894,4.395,-28.809,-30.273,-23.438,0.000
1700209056.898,-31.738,-34.180,-27.344,-29.297,0.000
1700209056.902,-40.039,-32.715,-26.367,-34.180,0.000
1700209056.906,-5.859,-28.320,-30.762,-26.367,0.000
1700209056.910,16.113,-27.832,-27.344,-26.855,0.000
1700209056.914,-13.184,-32.715,-20.508,-31.250,0.000
1700209056.917,-40.039,-43.945,-20.508,-37.109,0.000
1700209056.921,-0.488,-50.293,-23.438,-21.484,0.000
1700209056.925,23.926,-44.922,-29.785,-22.461,0.000
1700209056.929,-5.859,-30.273,-33.203,-44.922,0.000
1700209056.933,-31.250,-29.785,-21.484,-37.109,0.000
1700209056.937,-14.648,-40.039,-22.461,-19.043,0.000
1700209056.941,19.043,-34.668,-25.879,-7.324,0.000
1700209056.945,19.531,-29.785,-24.902,4.395,0.000
1700209056.949,-13.672,-39.062,-27.832,0.000,0.000
1700209056.953,-16.602,-39.062,-24.902,-2.441,0.000
1700209056.957,32.227,-35.645,-20.996,21.484,0.000
1700209056.960,31.250,-42.480,-17.578,21.484,0.000
1700209056.964,-13.672,-39.062,-20.020,2.441,0.000
1700209056.968,-25.391,-33.203,-12.695,3.418,0.000
1700209056.972,13.184,-29.785,-12.207,6.836,0.000
1700209056.976,27.832,-34.668,-19.531,14.648,0.000
1700209056.980,-16.602,-46.875,-18.555,7.324,0.000
1700209056.984,-45.898,-46.875,-20.508,-17.090,0.000
1700209056.988,-16.602,-40.039,-22.949,-8.789,0.000
1700209056.992,13.184,-41.992,-27.344,1.465,0.000
1700209056.996,-10.742,-41.016,-27.344,-13.184,0.000
1700209057.000,-41.504,-32.715,-27.344,-22.949,0.000
1700209057.003,-22.461,-32.715,-30.762,-14.648,0.000
1700209057.007,8.301,-30.273,-26.855,-1.953,0.000
1700209057.011,0.488,-31.250,-25.879,-4.883,0.000
1700209057.015,-39.062,-42.969,-25.879,-19.043,0.000
1700209057.019,-49.316,-51.758,-25.391,-25.879,0.000
1700209057.023,-0.977,-48.828,-29.785,-2.930,0.000
1700209057.027,2.930,-35.645,-23.438,3.418,0.000
1700209057.031,-41.504,-40.039,-20.996,-24.414,0.000
1700209057.035,-47.852,-47.363,-22.949,-26.367,0.000
1700209057.039,24.414,-37.598,-21.973,18.066,0.000
1700209057.042,54.199,-36.621,-20.020,36.133,0.000
1700209057.046,-22.461,-40.039,-20.508,-23.438,0.000
1700209057.050,-61.035,-39.551,-22.461,-55.664,0.000
1700209057.054,-23.926,-42.480,-17.090,-32.715,0.000
1700209057.058,-2.441,-46.387,-17.090,-24.902,0.000
1700209057.062,-27.344,-48.828,-18.555,-30.762,0.000
1700209057.066,-66.406,-46.875,-20.508,-39.551,0.000
1700209057.070,-66.895,-48.340,-24.414,-43.457,0.000
1700209057.074,-29.785,-53.223,-23.438,-35.645,0.000
1700209057.078,-34.668,-51.270,-16.113,-37.109,0.000
1700209057.082,-70.312,-48.828,-12.207,-40.039,0.000
1700209057.085,-73.730,-51.270,-14.160,-35.156,0.000
1700209057.089,-31.250,-57.617,-15.137,-20.508,0.000
1700209057.093,-10.742,-50.781,-13.184,-15.137,0.000
1700209057.097,-35.156,-39.062,-16.113,-25.879,0.000
1700209057.101,-58.105,-41.992,-19.531,-40.527,0.000
1700209057.105,-35.156,-47.363,-20.508,-34.180,0.000
1700209057.109,-14.648,-42.480,-21.973,-32.715,0.000
1700209057.113,-34.668,-39.062,-18.555,-30.762,0.000
1700209057.117,-56.641,-42.480,-16.602,-27.344,0.000
1700209057.121,-38.574,-45.410,-19.043,-28.809,0.000
1700209057.124,4.395,-60.547,-23.926,-11.719,0.000
1700209057.128,-9.766,-61.523,-28.320,-18.555,0.000
1700209057.132,-60.547,-39.551,-21.484,-42.969,0.000
1700209057.136,-51.758,-34.668,-17.578,-35.156,0.000
1700209057.140,4.395,-33.203,-17.578,-10.254,0.000
1700209057.144,5.859,-36.133,-13.184,-8.301,0.000
1700209057.148,-30.762,-39.062,-21.484,-24.414,0.000
1700209057.152,-32.227,-39.551,-27.344,-25.391,0.000
1700209057.156,6.836,-51.758,-25.391,-0.488,0.000
1700209057.160,16.602,-51.270,-29.785,0.488,0.000
1700209057.164,-13.672,-41.992,-26.367,-17.578,0.000
1700209057.167,-41.504,-41.992,-23.438,-29.785,0.000
1700209057.171,-21.973,-37.598,-22.461,-19.531,0.000
1700209057.175,6.348,-32.715,-22.949,-8.301,0.000
1700209057.179,-13.184,-27.832,-22.461,-21.484,0.000
1700209057.183,-49.805,-32.227,-21.973,-38.574,0.000
1700209057.187,-34.668,-35.645,-24.414,-31.250,0.000
1700209057.191,3.418,-45.898,-18.555,-15.137,0.000
1700209057.195,-11.230,-44.922,-20.020,-18.555,0.000
1700209057.199,-47.852,-40.527,-20.508,-28.320,0.000
1700209057.203,-53.223,-44.922,-18.555,-24.902,0.000
1700209057.207,-7.812,-41.016,-21.973,-5.859,0.000
1700209057.210,2.441,-34.668,-20.020,-10.254,0.000
1700209057.214,-35.156,-28.320,-21.484,-25.391,0.000
1700209057.218,-47.363,-37.598,-22.949,-28.809,0.000
1700209057.222,-15.625,-41.016,-24.902,-21.484,0.000
1700209057.226,8.301,-33.203,-28.320,-14.160,0.000
1700209057.230,-22.949,-32.715,-30.273,-24.414,0.000
1700209057.234,-57.129,-36.133,-27.344,-37.109,0.000
1700209057.238,-26.855,-35.156,-23.438,-20.020,0.000
1700209057.242,3.418,-34.668,-22.461,-6.348,0.000
1700209057.246,-15.625,-32.227,-19.043,-12.207,0.000
1700209057.249,-47.363,-39.062,-17.578,-27.344,0.000
1700209057.253,-40.527,-42.480,-21.973,-28.809,0.000
1700209057.257,-4.395,-31.250,-23.438,-19.531,0.000
1700209057.261,-8.301,-31.738,-23.926,-14.160,0.000
1700209057.265,-40.039,-43.457,-23.438,-20.020,0.000
1700209057.269,-48.828,-34.180,-27.832,-32.715,0.000
1700209057.273,-13.184,-30.762,-23.438,-18.555,0.000
1700209057.277,-0.977,-40.039,-15.137,-6.836,0.000
1700209057.281,-34.668,-39.062,-11.719,-15.137,0.000
1700209057.285,-48.828,-33.691,-13.672,-27.344,0.000
1700209057.289,-9.277,-34.180,-13.672,-12.695,0.000
1700209057.292,8.301,-39.551,-15.137,-4.883,0.000
1700209057.296,-27.344,-41.504,-17.578,-16.602,0.000
1700209057.300,-53.223,-33.203,-18.555,-17.090,0.000
1700209057.304,-33.203,-32.715,-24.902,-18.555,0.000
1700209057.308,7.812,-42.969,-21.484,-3.418,0.000
1700209057.312,4.883,-37.598,-14.648,4.395,0.000
1700209057.316,-36.621,-34.668,-19.531,-22.949,0.000
1700209057.320,-37.109,-43.457,-20.508,-27.832,0.000
1700209057.324,3.906,-42.969,-19.531,-1.465,0.000
1700209057.328,1.953,-45.898,-21.484,-8.789,0.000
1700209057.332,-44.434,-48.828,-21.973,-45.410,0.000
1700209057.335,-56.152,-33.203,-22.949,-46.875,0.000
1700209057.339,-11.719,-25.879,-23.926,-19.043,0.000
1700209057.343,-2.441,-28.320,-24.902,-18.066,0.000
1700209057.347,-31.250,-33.203,-23.438,-31.250,0.000
1700209057.351,-46.387,-33.691,-17.578,-27.832,0.000
1700209057.355,-19.043,-34.180,-15.625,-17.578,0.000
1700209057.359,7.812,-36.621,-18.066,-15.137,0.000
1700209057.363,-21.484,-30.762,-16.602,-23.438,0.000
1700209057.367,-59.082,-33.203,-20.996,-35.156,0.000
1700209057.371,-35.156,-33.691,-29.785,-30.273,0.000
1700209057.375,0.977,-32.227,-28.809,-14.648,0.000
1700209057.378,-14.648,-29.785,-23.926,-20.020,0.000
1700209057.382,-48.828,-31.738,-20.508,-31.738,0.000
1700209057.386,-51.270,-37.598,-24.902,-26.855,0.000
1700209057.390,-16.113,-35.645,-27.832,-13.184,0.000
1700209057.394,-10.254,-41.016,-24.414,-13.672,0.000
1700209057.398,-47.852,-51.270,-25.879,-27.832,0.000
1700209057.402,-53.711,-46.387,-25.879,-25.391,0.000
1700209057.406,-3.906,-31.250,-22.461,-7.812,0.000
1700209057.410,20.996,-27.832,-15.625,1.465,0.000
1700209057.414,-7.324,-28.809,-16.113,-3.418,0.000
1700209057.417,-35.645,-35.645,-26.367,-17.090,0.000
1700209057.421,-4.395,-37.109,-24.902,-13.184,0.000
1700209057.425,19.531,-36.621,-22.949,-3.418,0.000
1700209057.429,-14.648,-39.551,-30.273,-20.020,0.000
1700209057.433,-48.340,-41.504,-34.180,-32.715,0.000
1700209057.437,-39.062,-38.574,-37.109,-28.320,0.000
1700209057.441,1.953,-36.621,-35.645,-18.555,0.000
1700209057.445,-2.930,-44.434,-31.738,-21.484,0.000
1700209057.449,-47.363,-42.480,-33.203,-41.016,0.000
1700209057.453,-48.340,-48.340,-22.461,-40.039,0.000
1700209057.457,-13.184,-55.176,-21.973,-25.879,0.000
1700209057.460,-17.090,-37.598,-33.203,-24.902,0.000
1700209057.464,-51.270,-31.738,-33.203,-40.527,0.000
1700209057.468,-66.406,-39.551,-31.250,-52.734,0.000
1700209057.472,-33.203,-45.410,-30.273,-35.645,0.000
1700209057.476,-13.672,-40.039,-29.297,-31.250,0.000
1700209057.480,-41.504,-42.969,-26.367,-45.410,0.000
1700209057.484,-73.242,-57.129,-28.809,-58.105,0.000
1700209057.488,-52.734,-56.641,-29.297,-46.387,0.000
1700209057.492,-13.184,-44.434,-30.762,-28.320,0.000
1700209057.496,-29.785,-36.133,-24.902,-33.691,0.000
1700209057.499,-66.406,-41.504,-25.391,-51.758,0.000
1700209057.503,-51.758,-47.363,-32.227,-36.133,0.000
1700209057.507,-13.672,-46.387,-29.297,-12.695,0.000
1700209057.511,-13.184,-41.016,-27.832,-21.973,0.000
1700209057.515,-42.969,-44.434,-25.391,-37.598,0.000
1700209057.519,-55.664,-47.852,-27.344,-39.062,0.000
1700209057.523,-10.254,-45.410,-23.438,-9.277,0.000
1700209057.527,4.883,-39.551,-15.625,-3.906,0.000
1700209057.531,-33.691,-36.133,-19.531,-20.508,0.000
1700209057.535,-55.176,-42.480,-23.438,-22.461,0.000
1700209057.539,-26.367,-45.898,-27.832,-17.578,0.000
1700209057.542,-8.789,-44.922,-34.180,-21.484,0.000
1700209057.546,-32.227,-37.109,-30.762,-29.785,0.000
1700209057.550,-53.711,-39.551,-29.785,-34.180,0.000
1700209057.554,-28.809,-40.039,-23.926,-24.902,0.000
1700209057.558,9.277,-32.715,-20.996,-13.672,0.000
1700209057.562,-16.113,-36.133,-27.344,-16.602,0.000
1700209057.566,-56.152,-41.992,-31.250,-23.926,0.000
1700209057.570,-42.969,-41.016,-30.762,-21.484,0.000
1700209057.574,-4.395,-37.109,-24.414,-7.324,0.000
1700209057.578,-7.324,-45.410,-21.484,-1.953,0.000
1700209057.582,-41.504,-52.734,-24.902,-23.926,0.000
1700209057.585,-59.082,-48.828,-23.926,-37.598,0.000
1700209057.589,-27.832,-35.156,-22.949,-18.066,0.000
1700209057.593,-6.348,-33.691,-21.973,-7.324,0.000
1700209057.597,-41.992,-42.480,-20.020,-19.043,0.000
1700209057.601,-69.336,-43.945,-21.973,-37.598,0.000
1700209057.605,-31.738,-40.527,-20.996,-23.438,0.000
1700209057.609,8.789,-41.016,-14.160,6.348,0.000
1700209057.613,-5.371,-44.922,-13.184,2.441,0.000
1700209057.617,-40.527,-33.691,-21.484,-23.438,0.000
1700209057.621,-24.902,-37.598,-24.414,-17.578,0.000
1700209057.624,10.254,-46.387,-20.508,-4.395,0.000
1700209057.628,-6.836,-44.922,-14.648,-16.602,0.000
1700209057.632,-47.852,-48.340,-17.578,-32.715,0.000
1700209057.636,-34.668,-36.621,-21.484,-24.414,0.000
1700209057.640,12.695,-30.273,-13.184,-7.324,0.000
1700209057.644,10.742,-34.180,-17.090,-13.184,0.000
1700209057.648,-19.531,-39.551,-23.438,-18.555,0.000
1700209057.652,-32.227,-52.734,-16.113,-17.090,0.000
1700209057.656,-7.812,-38.086,-17.578,-9.766,0.000
1700209057.660,9.277,-20.020,-21.484,-10.254,0.000
1700209057.664,-21.973,-34.668,-24.902,-20.020,0.000
1700209057.667,-52.734,-40.039,-28.809,-30.762,0.000
1700209057.671,-24.414,-39.551,-29.785,-25.879,0.000
1700209057.675,1.953,-48.340,-28.320,-19.531,0.000
1700209057.679,-16.602,-50.293,-23.926,-23.926,0.000
1700209057.683,-40.527,-48.828,-24.414,-25.879,0.000
1700209057.687,-36.133,-45.898,-25.391,-25.391,0.000
1700209057.691,-4.883,-48.828,-24.902,-14.648,0.000
1700209057.695,-10.254,-53.711,-25.879,-13.672,0.000
1700209057.699,-51.270,-49.316,-29.297,-27.344,0.000
1700209057.703,-66.406,-51.270,-23.926,-32.227,0.000
1700209057.707,-23.926,-46.875,-19.043,-17.578,0.000
1700209057.710,-6.836,-42.480,-22.949,-11.719,0.000
1700209057.714,-43.457,-44.434,-23.438,-23.926,0.000
1700209057.718,-62.988,-37.598,-22.949,-28.809,0.000
1700209057.722,-29.785,-37.598,-23.438,-13.672,0.000
1700209057.726,-4.395,-45.898,-20.020,-9.277,0.000
1700209057.730,-37.598,-41.016,-20.996,-29.785,0.000
1700209057.734,-76.660,-42.480,-25.879,-52.734,0.000
1700209057.738,-49.805,-40.527,-23.926,-36.621,0.000
1700209057.742,-5.859,-33.203,-22.461,-13.184,0.000
1700209057.746,-16.602,-49.805,-22.461,-21.484,0.000
1700209057.749,-50.293,-54.199,-21.973,-34.668,0.000
1700209057.753,-39.551,-47.363,-23.926,-29.297,0.000
1700209057.757,4.395,-40.039,-23.438,-7.324,0.000
1700209057.761,0.000,-32.227,-26.855,-7.812,0.000
1700209057.765,-35.156,-37.109,-29.785,-22.949,0.000
1700209057.769,-37.598,-37.598,-23.926,-24.414,0.000
1700209057.773,-2.930,-41.992,-19.043,-4.395,0.000
1700209057.777,-1.465,-44.922,-23.438,-5.859,0.000
1700209057.781,-39.551,-38.086,-27.832,-23.438,0.000
1700209057.785,-61.523,-39.551,-23.438,-31.738,0.000
1700209057.789,-29.297,-34.668,-23.438,-14.648,0.000
1700209057.792,0.488,-29.785,-26.367,-4.883,0.000
1700209057.796,-19.531,-35.156,-22.949,-28.320,0.000
1700209057.800,-48.828,-48.828,-24.414,-41.992,0.000
1700209057.804,-34.180,-51.270,-31.738,-37.109,0.000
1700209057.808,-3.418,-43.457,-38.086,-26.855,0.000
1700209057.812,-20.508,-42.480,-33.691,-33.203,0.000
1700209057.816,-50.781,-39.551,-29.785,-37.598,0.000
1700209057.820,-48.340,-34.668,-24.902,-30.273,0.000
1700209057.824,-9.766,-27.344,-29.297,-15.625,0.000
1700209057.828,-11.230,-35.156,-32.715,-14.648,0.000
1700209057.831,-46.387,-43.945,-21.484,-26.855,0.000
1700209057.835,-55.176,-38.086,-22.461,-33.691,0.000
1700209057.839,-19.531,-34.180,-28.320,-15.137,0.000
1700209057.843,0.000,-44.922,-18.555,-6.836,0.000
1700209057.847,-31.738,-43.457,-15.625,-15.137,0.000
1700209057.851,-56.152,-36.621,-20.020,-30.762,0.000
1700209057.855,-30.273,-34.668,-20.020,-28.320,0.000
1700209057.859,0.488,-35.156,-18.066,-6.348,0.000
1700209057.863,-11.719,-39.551,-16.113,-5.371,0.000
1700209057.867,-51.270,-47.363,-21.973,-25.391,0.000
1700209057.871,-45.898,-44.434,-19.531,-30.273,0.000
1700209057.874,0.488,-37.598,-16.602,-10.254,0.000
1700209057.878,-4.883,-39.062,-18.555,-16.602,0.000
1700209057.882,-45.898,-37.109,-19.531,-34.668,0.000
1700209057.886,-46.875,-33.203,-25.391,-35.156,0.000
1700209057.890,-3.418,-37.109,-26.367,-22.461,0.000
1700209057.894,0.488,-33.691,-26.367,-22.949,0.000
1700209057.898,-37.109,-34.180,-27.344,-32.715,0.000
1700209057.902,-50.293,-45.898,-22.461,-37.109,0.000
1700209057.906,-11.230,-46.387,-23.438,-20.996,0.000
1700209057.910,0.977,-38.086,-28.320,-13.184,0.000
1700209057.914,-32.227,-35.645,-30.273,-24.414,0.000
1700209057.917,-55.176,-35.645,-33.203,-32.715,0.000
1700209057.921,-27.832,-35.156,-28.320,-16.113,0.000
1700209057.925,1.953,-31.250,-28.809,6.348,0.000
1700209057.929,-23.438,-40.039,-34.668,-11.230,0.000
1700209057.933,-52.734,-41.992,-32.715,-32.715,0.000
1700209057.937,-33.203,-36.133,-34.668,-34.180,0.000
1700209057.941,-1.465,-38.574,-34.180,-25.879,0.000
1700209057.945,-4.395,-35.156,-23.438,-16.113,0.000
1700209057.949,-29.785,-37.109,-20.508,-20.996,0.000
1700209057.953,-49.316,-40.039,-22.461,-38.086,0.000
1700209057.956,-16.113,-39.551,-19.531,-27.344,0.000
1700209057.960,-10.742,-43.457,-24.414,-23.438,0.000
1700209057.964,-52.734,-42.480,-25.879,-41.992,0.000
1700209057.968,-63.477,-48.828,-20.508,-41.504,0.000
1700209057.972,-31.250,-56.641,-24.414,-27.832,0.000
1700209057.976,-13.672,-51.758,-27.832,-21.484,0.000
1700209057.980,-31.738,-44.922,-29.297,-29.297,0.000
1700209057.984,-59.570,-49.805,-31.738,-36.621,0.000
1700209057.988,-39.062,-43.457,-24.414,-26.367,0.000
1700209057.992,0.488,-35.156,-18.066,-11.719,0.000
1700209057.996,-13.672,-38.574,-17.090,-13.184,0.000
1700209057.999,-45.898,-46.875,-20.508,-28.809,0.000
1700209058.003,-37.109,-45.898,-25.879,-32.715,0.000
1700209058.007,-5.371,-35.645,-27.832,-19.043,0.000
1700209058.011,-8.301,-43.457,-31.738,-21.484,0.000
1700209058.015,-35.645,-39.062,-29.785,-23.926,0.000
1700209058.019,-43.945,-32.715,-29.785,-29.785,0.000
1700209058.023,-9.766,-32.715,-37.109,-26.367,0.000
1700209058.027,0.000,-41.016,-29.785,-19.043,0.000
1700209058.031,-33.203,-45.898,-24.902,-32.715,0.000
1700209058.035,-57.129,-31.738,-33.203,-48.828,0.000
1700209058.039,-20.508,-32.715,-33.691,-30.273,0.000
1700209058.042,12.207,-30.762,-28.320,-7.324,0.000
1700209058.046,-2.441,-27.344,-24.902,-13.184,0.000
1700209058.050,-36.621,-41.016,-27.344,-32.227,0.000
1700209058.054,-30.762,-44.922,-29.297,-37.109,0.000
1700209058.058,11.230,-46.875,-28.320,-11.230,0.000
1700209058.062,-5.371,-52.246,-27.344,-7.812,0.000
1700209058.066,-46.875,-42.480,-28.809,-33.203,0.000
1700209058.070,-42.480,-32.715,-27.832,-28.320,0.000
1700209058.074,-4.395,-23.926,-22.461,-15.137,0.000
1700209058.078,-7.812,-28.320,-20.508,-25.879,0.000
1700209058.082,-53.223,-36.133,-22.461,-42.969,0.000
1700209058.085,-65.430,-41.504,-25.391,-43.457,0.000
1700209058.089,-23.438,-46.875,-28.320,-25.391,0.000
1700209058.093,-4.883,-40.527,-25.391,-20.020,0.000
1700209058.097,-31.250,-35.156,-22.949,-23.926,0.000
1700209058.101,-53.711,-37.109,-27.832,-35.645,0.000
1700209058.105,-25.391,-42.969,-20.996,-12.207,0.000
1700209058.109,4.395,-31.738,-11.230,4.883,0.000
1700209058.113,-20.020,-28.320,-17.090,-18.066,0.000
1700209058.117,-47.363,-37.109,-22.949,-33.691,0.000
1700209058.121,-37.109,-26.855,-24.902,-29.785,0.000
1700209058.124,-6.348,-21.484,-27.344,-16.113,0.000
1700209058.128,-14.160,-32.715,-25.391,-16.113,0.000
1700209058.132,-49.805,-36.133,-21.973,-26.855,0.000
1700209058.136,-49.316,-24.414,-19.531,-30.762,0.000
1700209058.140,-4.395,-29.297,-15.137,-9.277,0.000
1700209058.144,3.418,-41.016,-14.160,-0.977,0.000
1700209058.148,-36.133,-36.133,-19.043,-21.484,0.000
1700209058.152,-48.828,-37.109,-25.879,-26.367,0.000
1700209058.156,-13.184,-38.086,-29.297,-17.090,0.000
1700209058.160,6.836,-24.902,-23.926,-12.207,0.000
1700209058.164,-16.113,-22.949,-22.949,-10.254,0.000
1700209058.167,-44.922,-32.227,-21.973,-20.020,0.000
1700209058.171,-24.902,-35.645,-24.414,-20.996,0.000
1700209058.175,12.207,-30.273,-27.344,-3.906,0.000
1700209058.179,-6.836,-38.574,-20.508,-3.418,0.000
1700209058.183,-47.852,-47.363,-17.090,-11.230,0.000
1700209058.187,-38.086,-37.598,-19.043,-9.277,0.000
1700209058.191,-0.977,-24.902,-20.020,0.000,0.000
1700209058.195,0.000,-20.996,-20.020,1.465,0.000
1700209058.199,-41.504,-29.297,-21.484,-25.391,0.000
1700209058.203,-64.941,-39.062,-23.438,-43.945,0.000
1700209058.206,-19.043,-37.598,-22.949,-20.508,0.000
1700209058.210,-7.812,-38.574,-26.855,-10.254,0.000
1700209058.214,-46.387,-35.156,-26.367,-25.879,0.000
1700209058.218,-54.688,-37.598,-26.855,-27.344,0.000
1700209058.222,-23.926,-49.805,-28.809,-7.812,0.000
1700209058.226,-3.906,-39.551,-25.879,-7.812,0.000
1700209058.230,-33.691,-36.621,-27.832,-30.273,0.000
1700209058.234,-68.848,-37.109,-30.273,-38.574,0.000
1700209058.238,-48.340,-41.504,-24.902,-24.902,0.000
1700209058.242,-24.414,-47.852,-22.461,-11.719,0.000
1700209058.246,-45.898,-40.527,-29.297,-30.273,0.000
1700209058.249,-69.336,-45.898,-32.227,-42.480,0.000
1700209058.253,-51.270,-36.133,-25.391,-33.691,0.000
1700209058.257,-5.859,-29.785,-24.414,-17.090,0.000
1700209058.261,-9.766,-40.039,-26.855,-13.184,0.000
1700209058.265,-43.457,-30.762,-22.949,-22.461,0.000
1700209058.269,-46.387,-30.273,-24.902,-21.973,0.000
1700209058.273,-13.184,-31.738,-27.344,-10.254,0.000
1700209058.277,-2.441,-37.109,-22.461,-0.977,0.000
1700209058.281,-36.133,-41.504,-23.926,-11.230,0.000
1700209058.285,-58.105,-44.922,-24.414,-12.207,0.000
1700209058.289,-24.902,-47.363,-23.926,-6.836,0.000
1700209058.292,2.441,-39.551,-20.508,-4.883,0.000
1700209058.296,-21.484,-46.875,-20.020,-7.812,0.000
1700209058.300,-52.246,-49.316,-23.438,-25.391,0.000
1700209058.304,-37.109,-43.457,-25.879,-31.738,0.000
1700209058.308,-1.953,-30.762,-30.762,-19.043,0.000
1700209058.312,-14.648,-28.809,-32.227,-24.414,0.000
1700209058.316,-50.781,-32.227,-26.367,-46.875,0.000
1700209058.320,-41.016,-33.691,-25.879,-41.016,0.000
1700209058.324,1.953,-39.062,-21.973,-14.648,0.000
1700209058.328,-2.930,-32.227,-24.902,-9.277,0.000
1700209058.331,-48.340,-50.293,-28.809,-36.621,0.000
1700209058.335,-62.012,-57.617,-23.438,-46.387,0.000
1700209058.339,-24.414,-30.762,-24.902,-28.809,0.000
1700209058.343,-3.418,-28.809,-23.438,-19.531,0.000
1700209058.347,-34.180,-30.273,-20.508,-28.320,0.000
1700209058.351,-59.082,-29.297,-23.926,-41.992,0.000
1700209058.355,-21.484,-33.203,-23.438,-25.879,0.000
1700209058.359,4.395,-36.621,-26.855,-9.277,0.000
1700209058.363,-20.508,-42.969,-29.297,-19.531,0.000
1700209058.367,-54.199,-46.875,-21.484,-34.180,0.000
1700209058.371,-39.551,-52.734,-20.020,-24.902,0.000
1700209058.374,0.488,-43.457,-26.855,-9.277,0.000
1700209058.378,-21.973,-31.250,-26.367,-29.297,0.000
1700209058.382,-61.523,-32.227,-24.414,-45.410,0.000
1700209058.386,-56.641,-34.668,-26.367,-30.762,0.000
1700209058.390,-19.531,-38.574,-26.855,-18.555,0.000
1700209058.394,-12.207,-39.062,-25.391,-21.484,0.000
1700209058.398,-40.039,-34.668,-26.855,-34.180,0.000
1700209058.402,-56.641,-41.016,-30.762,-40.527,0.000
1700209058.406,-24.414,-43.457,-27.344,-20.996,0.000
1700209058.410,-1.953,-46.875,-22.461,-15.137,0.000
1700209058.413,-36.621,-49.316,-23.926,-30.273,0.000
1700209058.417,-63.965,-31.738,-25.879,-36.621,0.000
1700209058.421,-38.574,-31.250,-25.391,-30.273,0.000
1700209058.425,-8.789,-35.156,-23.926,-18.555,0.000
1700209058.429,-25.391,-37.598,-32.227,-18.555,0.000
1700209058.433,-58.594,-42.969,-30.273,-26.367,0.000
1700209058.437,-49.805,-43.457,-25.879,-26.855,0.000
1700209058.441,-15.625,-46.387,-28.320,-26.367,0.000
1700209058.445,-19.531,-52.734,-21.973,-27.344,0.000
1700209058.449,-56.641,-48.340,-19.043,-33.203,0.000
1700209058.453,-67.383,-41.504,-26.367,-52.246,0.000
1700209058.456,-31.250,-37.109,-28.320,-37.598,0.000
1700209058.460,-13.184,-30.273,-24.902,-24.414,0.000
1700209058.464,-42.480,-31.738,-25.391,-46.387,0.000
1700209058.468,-65.918,-44.922,-25.879,-49.805,0.000
1700209058.472,-35.156,-43.945,-30.273,-34.180,0.000
1700209058.476,-11.719,-36.621,-32.227,-26.855,0.000
1700209058.480,-41.016,-47.852,-28.809,-30.273,0.000
1700209058.484,-76.660,-50.781,-41.016,-46.387,0.000
1700209058.488,-59.082,-46.387,-40.527,-45.898,0.000
1700209058.492,-14.160,-35.156,-32.715,-20.020,0.000
1700209058.496,-24.414,-34.668,-29.297,-27.344,0.000
1700209058.499,-65.918,-40.039,-25.879,-53.711,0.000
1700209058.503,-60.059,-48.828,-25.879,-46.875,0.000
1700209058.507,-12.207,-45.410,-24.414,-19.531,0.000
1700209058.511,-9.277,-32.715,-26.367,-20.508,0.000
1700209058.515,-55.176,-40.039,-26.367,-46.387,0.000
1700209058.519,-62.012,-42.480,-22.949,-49.805,0.000
1700209058.523,-16.113,-45.898,-21.973,-20.020,0.000
1700209058.527,0.488,-55.176,-20.508,-9.766,0.000
1700209058.531,-35.156,-50.781,-23.438,-26.367,0.000
1700209058.535,-66.406,-40.039,-26.855,-37.109,0.000
1700209058.538,-35.645,-37.598,-27.344,-26.367,0.000
1700209058.542,0.000,-32.715,-25.391,-13.184,0.000
1700209058.546,-18.066,-36.133,-22.949,-22.949,0.000
1700209058.550,-50.293,-42.969,-27.832,-39.551,0.000
1700209058.554,-38.574,-36.621,-34.180,-39.551,0.000
1700209058.558,-8.789,-31.738,-30.762,-28.809,0.000
1700209058.562,-13.184,-37.109,-23.438,-27.344,0.000
1700209058.566,-45.898,-50.293,-24.414,-40.039,0.000
1700209058.570,-54.199,-43.457,-25.391,-44.434,0.000
1700209058.574,-13.184,-22.461,-21.973,-28.320,0.000
1700209058.578,-2.930,-30.273,-25.391,-26.855,0.000
1700209058.581,-40.039,-40.039,-25.391,-38.574,0.000
1700209058.585,-60.059,-35.156,-21.973,-41.016,0.000
1700209058.589,-29.297,-36.133,-21.973,-33.203,0.000
1700209058.593,-13.184,-44.922,-18.066,-23.438,0.000
1700209058.597,-39.551,-41.504,-20.996,-26.855,0.000
1700209058.601,-56.152,-38.086,-21.973,-35.156,0.000
1700209058.605,-19.531,-44.922,-19.531,-18.555,0.000
1700209058.609,10.742,-41.992,-23.926,-6.348,0.000
1700209058.613,-17.578,-32.227,-29.785,-16.113,0.000
1700209058.617,-52.246,-32.715,-31.250,-32.715,0.000
1700209058.621,-38.086,-28.809,-28.809,-36.133,0.000
1700209058.624,1.465,-38.574,-23.926,-16.113,0.000
1700209058.628,-5.859,-40.527,-19.043,-13.672,0.000
1700209058.632,-38.086,-36.133,-18.066,-24.414,0.000
1700209058.636,-46.875,-42.969,-20.508,-27.344,0.000
1700209058.640,-11.719,-32.715,-19.043,-7.324,0.000
1700209058.644,-0.977,-34.180,-16.113,-0.977,0.000
1700209058.648,-35.645,-45.410,-21.484,-17.090,0.000
1700209058.652,-57.617,-37.598,-24.414,-26.855,0.000
1700209058.656,-19.531,-28.809,-17.578,-7.324,0.000
1700209058.660,10.254,-38.086,-13.672,5.859,0.000
1700209058.663,-19.531,-36.133,-22.461,-14.648,0.000
1700209058.667,-48.340,-32.715,-25.879,-36.621,0.000
1700209058.671,-19.531,-49.805,-18.555,-27.832,0.000
1700209058.675,19.043,-45.410,-20.020,-10.742,0.000
1700209058.679,-0.488,-30.273,-22.949,-22.461,0.000
1700209058.683,-41.504,-38.086,-20.020,-34.668,0.000
1700209058.687,-33.691,-40.527,-23.926,-21.484,0.000
1700209058.691,6.836,-38.086,-27.344,-10.254,0.000
1700209058.695,0.488,-44.434,-29.297,-12.695,0.000
1700209058.699,-40.527,-36.133,-33.203,-31.250,0.000
1700209058.703,-46.875,-41.504,-34.180,-32.227,0.000
1700209058.706,-0.977,-43.457,-33.203,-15.137,0.000
1700209058.710,12.207,-31.250,-25.879,-21.484,0.000
1700209058.714,-27.344,-31.250,-27.832,-34.180,0.000
1700209058.718,-50.293,-42.480,-37.598,-35.645,0.000
1700209058.722,-15.137,-40.039,-33.203,-18.555,0.000
1700209058.726,15.137,-29.785,-23.438,-9.277,0.000
1700209058.730,-11.230,-29.297,-24.414,-14.648,0.000
1700209058.734,-46.387,-29.297,-26.855,-25.879,0.000
1700209058.738,-28.809,-32.227,-25.879,-30.273,0.000
1700209058.742,8.789,-30.762,-25.879,-19.531,0.000
1700209058.746,-2.930,-31.250,-23.438,-17.090,0.000
1700209058.749,-52.734,-35.645,-26.367,-37.598,0.000
1700209058.753,-50.293,-34.668,-23.438,-39.062,0.000
1700209058.757,-2.441,-30.762,-16.602,-14.648,0.000
1700209058.761,-8.789,-36.133,-18.066,-6.348,0.000
1700209058.765,-41.992,-32.715,-16.113,-14.160,0.000
1700209058.769,-59.082,-33.691,-21.973,-26.367,0.000
1700209058.773,-17.090,-43.457,-26.855,-12.695,0.000
1700209058.777,9.277,-28.809,-19.043,6.836,0.000
1700209058.781,-27.832,-16.113,-19.531,-2.441,0.000
1700209058.785,-53.223,-20.508,-23.926,-21.973,0.000
1700209058.788,-20.508,-26.367,-25.391,-13.184,0.000
1700209058.792,16.602,-25.879,-24.902,2.441,0.000
1700209058.796,-0.977,-18.066,-25.879,-3.418,0.000
1700209058.800,-36.133,-21.973,-28.320,-21.484,0.000
1700209058.804,-21.484,-25.879,-21.484,-6.836,0.000
1700209058.808,7.324,-24.414,-16.113,11.230,0.000
1700209058.812,-5.859,-33.203,-16.602,6.836,0.000
1700209058.816,-40.039,-41.504,-18.066,1.953,0.000
1700209058.820,-43.945,-44.922,-20.996,-5.371,0.000
1700209058.824,-2.441,-42.969,-18.066,7.812,0.000
1700209058.828,-0.488,-33.691,-14.160,5.859,0.000
1700209058.831,-44.922,-33.691,-17.090,-22.461,0.000
1700209058.835,-58.105,-32.227,-21.484,-30.273,0.000
1700209058.839,-18.555,-24.902,-20.508,-9.766,0.000
1700209058.843,3.418,-34.180,-27.344,1.465,0.000
1700209058.847,-20.996,-32.715,-32.227,-13.184,0.000
1700209058.851,-46.387,-35.645,-22.949,-26.367,0.000
1700209058.855,-28.320,-47.363,-27.344,-18.066,0.000
1700209058.859,-19.043,-36.621,-31.738,-26.855,0.000
1700209058.863,-36.133,-31.250,-24.902,-35.645,0.000
1700209058.867,-67.871,-38.086,-24.902,-46.387,0.000
1700209058.871,-64.453,-40.039,-32.715,-39.551,0.000
1700209058.874,-23.438,-30.762,-33.691,-23.926,0.000
1700209058.878,-27.832,-32.715,-30.762,-27.344,0.000
1700209058.882,-55.664,-42.969,-25.391,-28.809,0.000
1700209058.886,-51.758,-41.992,-24.414,-23.438,0.000
1700209058.890,-5.859,-35.645,-27.832,-9.277,0.000
1700209058.894,-4.395,-39.551,-25.879,-13.672,0.000
1700209058.898,-39.062,-44.922,-25.391,-19.043,0.000
1700209058.902,-44.434,-50.781,-29.297,-17.578,0.000
1700209058.906,-7.812,-48.340,-25.391,-8.301,0.000
1700209058.910,6.836,-39.551,-28.809,0.000,0.000
1700209058.913,-20.996,-37.109,-28.320,-16.113,0.000
1700209058.917,-44.922,-37.598,-20.508,-29.297,0.000
1700209058.921,-20.508,-40.039,-21.484,-13.184,0.000
1700209058.925,15.625,-35.156,-21.973,10.742,0.000
1700209058.929,-2.441,-30.273,-20.020,-4.883,0.000
1700209058.933,-43.457,-32.715,-22.461,-31.738,0.000
1700209058.937,-30.762,-37.598,-22.461,-22.461,0.000
1700209058.941,14.160,-41.504,-22.949,-4.883,0.000
1700209058.945,2.930,-44.922,-23.438,-5.371,0.000
1700209058.949,-38.574,-45.410,-26.367,-20.020,0.000
1700209058.953,-50.781,-37.109,-27.832,-37.109,0.000
1700209058.956,-11.719,-32.715,-27.344,-21.484,0.000
1700209058.960,0.000,-38.574,-28.809,-13.672,0.000
1700209058.964,-42.969,-53.223,-24.414,-39.551,0.000
1700209058.968,-65.430,-41.016,-26.367,-51.758,0.000
1700209058.972,-28.320,-30.273,-29.297,-32.227,0.000
1700209058.976,-9.277,-38.086,-24.414,-17.578,0.000
1700209058.980,-43.945,-46.875,-22.461,-33.691,0.000
1700209058.984,-66.895,-50.781,-27.344,-47.852,0.000
1700209058.988,-41.016,-48.828,-25.391,-32.227,0.000
1700209058.992,-1.953,-49.316,-21.484,-16.602,0.000
1700209058.995,-16.602,-48.828,-19.531,-23.438,0.000
1700209058.999,-59.570,-43.945,-19.043,-46.875,0.000
1700209059.003,-48.828,-50.781,-19.531,-31.738,0.000
1700209059.007,1.465,-46.875,-20.996,-3.418,0.000
1700209059.011,1.465,-34.180,-25.879,-16.602,0.000
1700209059.015,-37.109,-37.109,-32.227,-35.645,0.000
1700209059.019,-62.012,-37.598,-31.250,-41.016,0.000
1700209059.023,-22.461,-34.180,-26.855,-21.973,0.000
1700209059.027,-0.488,-36.621,-28.809,-24.902,0.000
1700209059.031,-31.738,-40.527,-31.738,-37.109,0.000
1700209059.035,-52.246,-38.086,-30.762,-33.691,0.000
1700209059.038,-30.273,-41.992,-29.297,-25.391,0.000
1700209059.042,-10.742,-41.504,-34.180,-25.391,0.000
1700209059.046,-29.297,-41.016,-35.645,-32.715,0.000
1700209059.050,-54.688,-47.363,-28.809,-35.645,0.000
1700209059.054,-46.387,-45.898,-26.367,-41.504,0.000
1700209059.058,-1.953,-37.109,-26.367,-25.391,0.000
1700209059.062,-2.441,-38.574,-24.902,-18.066,0.000
1700209059.066,-38.574,-45.898,-25.879,-37.598,0.000
1700209059.070,-38.086,-37.598,-25.391,-36.133,0.000
1700209059.074,-1.953,-33.203,-20.996,-18.066,0.000
1700209059.078,1.953,-35.645,-22.949,-12.207,0.000
1700209059.081,-33.203,-36.133,-22.949,-22.949,0.000
1700209059.085,-55.176,-40.527,-27.344,-41.016,0.000
1700209059.089,-24.414,-47.363,-27.832,-37.109,0.000
1700209059.093,0.977,-49.805,-22.461,-19.531,0.000
1700209059.097,-32.715,-37.598,-26.855,-29.297,0.000
1700209059.101,-64.941,-34.180,-22.949,-40.527,0.000
1700209059.105,-37.109,-45.410,-17.578,-18.066,0.000
1700209059.109,-0.488,-50.781,-22.949,-3.418,0.000
1700209059.113,-16.113,-49.316,-25.391,-20.020,0.000
1700209059.117,-54.688,-40.527,-24.414,-33.203,0.000
1700209059.120,-45.410,-34.180,-27.832,-24.902,0.000
1700209059.124,-4.395,-34.668,-24.414,-8.301,0.000
1700209059.128,-13.672,-27.832,-20.996,-20.508,0.000
1700209059.132,-57.129,-29.785,-25.879,-43.457,0.000
1700209059.136,-58.594,-37.598,-24.414,-36.133,0.000
1700209059.140,-16.602,-41.016,-23.438,-17.090,0.000
1700209059.144,-9.277,-39.062,-24.902,-17.090,0.000
1700209059.148,-44.434,-40.039,-23.926,-33.203,0.000
1700209059.152,-66.406,-42.969,-24.414,-44.434,0.000
1700209059.156,-37.598,-47.363,-22.461,-29.297,0.000
1700209059.160,-10.254,-42.480,-20.996,-17.090,0.000
1700209059.163,-26.367,-27.832,-18.066,-19.043,0.000
1700209059.167,-47.852,-42.969,-13.184,-20.996,0.000
1700209059.171,-26.367,-44.922,-11.719,-16.113,0.000
1700209059.175,4.395,-24.902,-17.578,-6.348,0.000
1700209059.179,-14.160,-26.367,-27.344,-14.160,0.000
1700209059.183,-47.852,-39.062,-20.996,-14.648,0.000
1700209059.187,-41.504,-42.969,-17.578,-13.184,0.000
1700209059.191,0.488,-37.109,-23.438,-12.207,0.000
1700209059.195,-0.977,-35.645,-20.020,-5.371,0.000
1700209059.199,-41.992,-39.551,-20.020,-25.391,0.000
1700209059.203,-54.199,-36.621,-25.391,-34.668,0.000
1700209059.206,-27.832,-32.715,-24.902,-21.484,0.000
1700209059.210,-14.648,-41.504,-26.855,-20.508,0.000
1700209059.214,-37.109,-45.898,-27.344,-25.879,0.000
1700209059.218,-66.895,-41.016,-24.414,-38.574,0.000
1700209059.222,-37.109,-31.738,-16.113,-28.809,0.000
1700209059.226,-0.977,-26.855,-10.742,-15.137,0.000
1700209059.230,-27.832,-28.320,-20.020,-32.715,0.000
1700209059.234,-62.012,-30.762,-21.973,-45.410,0.000
1700209059.238,-44.434,-32.227,-18.555,-41.504,0.000
1700209059.242,-8.301,-36.621,-23.926,-33.691,0.000
1700209059.245,-14.648,-37.598,-25.391,-29.785,0.000
1700209059.249,-51.270,-31.250,-24.902,-39.062,0.000
1700209059.253,-55.176,-34.180,-23.926,-39.551,0.000
1700209059.257,-15.625,-39.062,-20.508,-23.438,0.000
1700209059.261,-11.230,-39.551,-27.344,-18.555,0.000
1700209059.265,-49.805,-34.180,-27.832,-30.273,0.000
1700209059.269,-61.035,-30.762,-23.926,-34.668,0.000
1700209059.273,-12.207,-25.391,-25.391,-13.672,0.000
1700209059.277,3.418,-19.043,-23.438,-5.371,0.000
1700209059.281,-34.668,-26.367,-21.973,-25.879,0.000
1700209059.285,-52.734,-32.715,-22.949,-33.203,0.000
1700209059.288,-29.785,-42.480,-23.438,-23.926,0.000
1700209059.292,-1.953,-50.293,-25.391,-18.066,0.000
1700209059.296,-19.531,-31.738,-28.320,-23.926,0.000
1700209059.300,-53.223,-26.855,-29.785,-32.227,0.000
1700209059.304,-41.504,-37.598,-28.809,-28.809,0.000
1700209059.308,2.930,-30.273,-26.367,-12.207,0.000
1700209059.312,-3.906,-30.762,-30.762,-18.555,0.000
1700209059.316,-48.340,-41.992,-29.297,-42.969,0.000
1700209059.320,-58.105,-46.387,-21.973,-41.992,0.000
1700209059.324,-18.555,-45.898,-25.391,-30.273,0.000
1700209059.327,-9.277,-41.016,-28.809,-29.785,0.000
1700209059.331,-43.945,-41.016,-26.855,-35.156,0.000
1700209059.335,-58.594,-38.086,-25.391,-35.645,0.000
1700209059.339,-18.066,-32.227,-26.855,-20.508,0.000
1700209059.343,9.766,-29.785,-27.344,-9.277,0.000
1700209059.347,-17.090,-33.691,-25.391,-12.695,0.000
1700209059.351,-51.270,-46.875,-26.855,-25.391,0.000
1700209059.355,-34.668,-56.641,-28.809,-25.391,0.000
1700209059.359,0.488,-51.270,-26.367,-14.160,0.000
1700209059.363,-15.137,-42.480,-26.367,-18.555,0.000
1700209059.367,-51.758,-50.781,-30.762,-35.156,0.000
1700209059.370,-49.316,-46.387,-24.902,-39.062,0.000
1700209059.374,-7.324,-36.621,-20.020,-25.879,0.000
1700209059.378,-6.348,-43.457,-22.461,-21.973,0.000
1700209059.382,-48.340,-48.828,-30.273,-34.668,0.000
1700209059.386,-62.500,-54.688,-30.273,-43.457,0.000
1700209059.390,-25.391,-45.410,-24.902,-29.785,0.000
1700209059.394,-13.184,-37.109,-18.555,-31.250,0.000
1700209059.398,-51.758,-41.504,-17.090,-45.410,0.000
1700209059.402,-70.312,-39.062,-22.461,-46.387,0.000
1700209059.406,-24.902,-41.016,-24.414,-30.762,0.000
1700209059.410,3.906,-40.527,-24.414,-15.137,0.000
1700209059.413,-32.227,-37.598,-22.461,-28.320,0.000
1700209059.417,-64.941,-47.852,-20.508,-46.875,0.000
1700209059.421,-46.875,-45.898,-25.391,-37.598,0.000
1700209059.425,-10.254,-40.039,-30.762,-21.973,0.000
1700209059.429,-16.113,-42.969,-31.738,-30.273,0.000
1700209059.433,-51.270,-39.062,-29.785,-40.527,0.000
1700209059.437,-46.875,-33.691,-35.156,-41.016,0.000
1700209059.441,0.488,-34.668,-37.109,-22.949,0.000
1700209059.445,-1.465,-37.109,-32.715,-28.809,0.000
1700209059.449,-42.969,-40.527,-35.156,-45.898,0.000
1700209059.452,-54.688,-41.504,-29.785,-28.320,0.000
1700209059.456,-18.066,-44.434,-27.344,-12.207,0.000
1700209059.460,-2.441,-54.688,-35.156,-18.555,0.000
1700209059.464,-34.180,-56.152,-33.691,-33.203,0.000
1700209059.468,-59.570,-43.457,-33.203,-44.922,0.000
1700209059.472,-34.180,-40.039,-32.715,-32.227,0.000
1700209059.476,-3.418,-43.945,-28.809,-20.508,0.000
1700209059.480,-34.668,-46.875,-26.367,-33.691,0.000
1700209059.484,-65.918,-37.598,-26.855,-39.062,0.000
1700209059.488,-43.457,-36.621,-28.320,-31.250,0.000
1700209059.492,-12.207,-41.016,-27.344,-16.602,0.000
1700209059.495,-19.531,-40.527,-24.414,-17.090,0.000
1700209059.499,-46.875,-36.133,-20.508,-27.344,0.000
1700209059.503,-47.363,-38.574,-25.391,-27.344,0.000
1700209059.507,-9.766,-35.645,-30.762,-19.043,0.000
1700209059.511,0.488,-41.504,-33.203,-12.695,0.000
1700209059.515,-34.668,-43.457,-26.855,-14.648,0.000
1700209059.519,-61.523,-37.598,-26.367,-28.809,0.000
1700209059.523,-32.227,-41.992,-29.785,-20.508,0.000
1700209059.527,-7.812,-41.016,-28.809,-10.742,0.000
1700209059.531,-31.738,-44.922,-27.344,-22.949,0.000
1700209059.535,-64.941,-51.270,-29.785,-41.992,0.000
1700209059.538,-38.574,-44.922,-22.949,-31.250,0.000
1700209059.542,-4.883,-34.668,-17.090,-20.020,0.000
1700209059.546,-32.227,-36.133,-25.391,-36.621,0.000
1700209059.550,-63.477,-40.527,-32.227,-43.945,0.000
1700209059.554,-36.621,-45.410,-25.391,-28.809,0.000
1700209059.558,-2.930,-40.527,-19.043,-4.883,0.000
1700209059.562,-26.855,-41.504,-26.855,-16.113,0.000
1700209059.566,-68.848,-41.992,-29.785,-45.410,0.000
1700209059.570,-57.129,-33.691,-26.367,-38.086,0.000
1700209059.574,-13.672,-36.133,-19.043,-21.973,0.000
1700209059.578,-15.137,-43.945,-14.160,-20.020,0.000
1700209059.581,-49.316,-44.434,-13.672,-37.598,0.000
1700209059.585,-63.477,-45.898,-17.578,-48.828,0.000
1700209059.589,-33.203,-49.316,-19.531,-34.668,0.000
1700209059.593,-9.766,-40.527,-19.043,-20.996,0.000
1700209059.597,-31.250,-36.133,-21.484,-28.320,0.000
1700209059.601,-56.152,-46.875,-20.508,-40.527,0.000
1700209059.605,-22.461,-37.598,-15.625,-12.207,0.000
1700209059.609,10.254,-25.391,-18.066,2.441,0.000
1700209059.613,-15.625,-34.668,-20.508,-15.625,0.000
1700209059.617,-54.688,-43.457,-14.648,-28.809,0.000
1700209059.620,-53.711,-44.922,-12.695,-33.691,0.000
1700209059.624,-17.090,-45.410,-15.625,-24.902,0.000
1700209059.628,-16.602,-51.758,-19.043,-24.414,0.000
1700209059.632,-48.340,-45.898,-20.996,-34.668,0.000
1700209059.636,-54.199,-40.039,-23.438,-41.504,0.000
1700209059.640,-20.996,-42.969,-23.438,-29.785,0.000
1700209059.644,-11.230,-42.969,-29.297,-20.996,0.000
1700209059.648,-42.480,-34.180,-30.762,-37.109,0.000
1700209059.652,-62.500,-31.738,-29.297,-52.246,0.000
1700209059.656,-32.715,-34.180,-27.832,-21.973,0.000
1700209059.660,-7.324,-35.156,-19.531,-6.348,0.000
1700209059.663,-29.785,-36.133,-18.066,-17.090,0.000
1700209059.667,-59.570,-39.551,-14.648,-23.438,0.000
1700209059.671,-35.156,-32.715,-3.906,-20.020,0.000
1700209059.675,2.441,-23.926,-4.395,-4.395,0.000
1700209059.679,-20.996,-26.367,-15.137,-20.020,0.000
1700209059.683,-67.383,-28.809,-16.113,-44.434,0.000
1700209059.687,-83.496,-31.738,-20.996,-64.453,0.000
1700209059.691,-49.316,-35.645,-14.160,-58.105,0.000
1700209059.695,-47.852,-24.902,-0.488,-56.641,0.000
1700209059.699,-105.469,-18.066,-6.348,-100.586,0.000
1700209059.702,-136.719,-16.602,-7.812,-128.418,0.000
1700209059.706,-112.793,-1.465,-0.977,-126.465,0.000
1700209059.710,-114.746,16.113,2.441,-139.160,0.000
1700209059.714,-175.781,27.832,-2.441,-177.734,0.000
1700209059.718,-221.680,31.250,-5.859,-205.078,0.000
1700209059.722,-208.984,29.297,-4.395,-202.148,0.000
1700209059.726,-192.383,28.809,-4.883,-202.637,0.000
1700209059.730,-224.121,35.645,-12.207,-225.098,0.000
1700209059.734,-277.344,28.809,-16.602,-252.441,0.000
1700209059.738,-264.648,19.531,-18.555,-241.211,0.000
1700209059.742,-212.891,24.902,-14.648,-215.332,0.000
1700209059.745,-225.098,19.043,-20.020,-225.586,0.000
1700209059.749,-249.512,6.836,-24.902,-230.957,0.000
1700209059.753,-232.910,14.160,-20.996,-213.379,0.000
1700209059.757,-188.965,10.742,-27.344,-186.035,0.000
1700209059.761,-168.945,4.883,-28.320,-168.945,0.000
1700209059.765,-174.316,8.301,-26.855,-160.645,0.000
1700209059.769,-168.945,-1.953,-35.156,-152.832,0.000
1700209059.773,-112.793,-11.719,-39.551,-118.164,0.000
1700209059.777,-66.895,-20.508,-34.180,-73.730,0.000
1700209059.781,-85.938,-22.461,-33.691,-64.453,0.000
1700209059.784,-93.750,-27.344,-33.203,-58.105,0.000
1700209059.788,-48.828,-38.574,-36.621,-37.598,0.000
1700209059.792,1.465,-40.527,-44.434,-8.301,0.000
1700209059.796,-3.418,-42.480,-42.969,-1.953,0.000
1700209059.800,-32.715,-43.945,-46.387,-9.277,0.000
1700209059.804,-3.418,-46.387,-46.387,8.301,0.000
1700209059.808,46.387,-53.711,-42.969,33.203,0.000
1700209059.812,44.434,-57.129,-45.898,44.434,0.000
1700209059.816,16.113,-53.711,-51.270,31.738,0.000
1700209059.820,13.672,-57.129,-53.223,24.902,0.000
1700209059.824,60.059,-57.129,-49.805,47.852,0.000
1700209059.827,78.125,-62.012,-43.457,58.105,0.000
1700209059.831,46.387,-65.430,-41.504,54.199,0.000
1700209059.835,28.320,-62.012,-41.992,43.457,0.000
1700209059.839,58.594,-63.965,-47.363,49.316,0.000
1700209059.843,87.402,-66.406,-43.945,73.242,0.000
1700209059.847,59.570,-63.477,-39.551,58.594,0.000
1700209059.851,22.949,-62.988,-45.898,34.180,0.000
1700209059.855,45.898,-62.988,-41.504,47.363,0.000
1700209059.859,73.730,-65.918,-35.645,53.711,0.000
1700209059.863,46.875,-65.918,-39.062,29.785,0.000
1700209059.867,6.348,-69.824,-41.504,9.277,0.000
1700209059.870,0.977,-71.777,-45.898,10.742,0.000
1700209059.874,44.434,-65.918,-46.387,32.227,0.000
1700209059.878,56.641,-63.477,-42.480,34.668,0.000
1700209059.882,20.020,-58.594,-36.621,20.020,0.000
1700209059.886,13.672,-61.523,-35.645,25.879,0.000
1700209059.890,44.922,-67.871,-39.062,39.062,0.000
1700209059.894,52.246,-69.336,-42.480,35.156,0.000
1700209059.898,32.715,-66.406,-35.156,27.344,0.000
1700209059.902,9.766,-63.477,-29.785,22.949,0.000
1700209059.906,33.691,-62.988,-34.668,37.598,0.000
1700209059.910,56.152,-55.176,-33.203,41.016,0.000
1700209059.913,25.391,-52.246,-32.227,23.926,0.000
1700209059.917,-1.465,-59.082,-31.250,8.301,0.000
1700209059.921,24.902,-52.246,-30.273,18.066,0.000
1700209059.925,67.871,-50.781,-27.832,45.410,0.000
1700209059.929,58.105,-54.199,-24.414,38.574,0.000
1700209059.933,6.836,-45.898,-23.926,14.160,0.000
1700209059.937,0.977,-50.293,-22.949,14.160,0.000
1700209059.941,38.574,-51.758,-31.250,26.855,0.000
1700209059.945,41.016,-52.734,-30.762,20.508,0.000
1700209059.949,7.324,-58.105,-26.367,4.883,0.000
1700209059.953,-13.672,-53.711,-29.297,-3.906,0.000
1700209059.956,23.926,-45.898,-28.320,5.371,0.000
1700209059.960,42.969,-46.387,-26.367,15.137,0.000
1700209059.964,11.719,-48.828,-22.461,10.742,0.000
1700209059.968,-21.484,-48.828,-22.949,-11.230,0.000
1700209059.972,-0.977,-43.945,-29.785,-11.719,0.000
1700209059.976,32.715,-44.434,-32.715,2.930,0.000
1700209059.980,7.812,-47.852,-28.809,0.488,0.000
1700209059.984,-33.203,-44.922,-24.414,-19.043,0.000
1700209059.988,-13.672,-46.875,-27.832,-26.855,0.000
1700209059.992,26.855,-49.805,-28.809,-3.906,0.000
1700209059.995,10.254,-46.387,-29.785,-6.836,0.000
1700209059.999,-27.344,-48.828,-32.715,-22.949,0.000
1700209060.003,-27.832,-47.363,-25.879,-20.508,0.000
1700209060.007,18.555,-47.852,-24.414,2.441,0.000
1700209060.011,24.902,-43.457,-31.738,8.301,0.000
1700209060.015,-20.020,-43.457,-34.668,-10.742,0.000
1700209060.019,-34.668,-42.480,-32.227,-14.160,0.000
1700209060.023,-1.953,-45.410,-28.809,0.977,0.000
1700209060.027,14.160,-48.340,-29.785,-2.930,0.000
1700209060.031,-18.066,-36.133,-31.250,-20.020,0.000
1700209060.035,-41.992,-37.598,-24.902,-21.484,0.000
1700209060.038,-9.766,-36.133,-21.973,-3.906,0.000
1700209060.042,21.484,-26.367,-17.090,9.277,0.000
1700209060.046,-0.977,-29.785,-11.719,0.000,0.000
1700209060.050,-42.480,-36.133,-20.508,-25.879,0.000
1700209060.054,-32.715,-40.039,-23.926,-24.902,0.000
1700209060.058,11.230,-43.945,-21.973,0.977,0.000
1700209060.062,0.000,-46.387,-20.508,-1.953,0.000
1700209060.066,-41.016,-61.035,-23.438,-21.973,0.000
1700209060.070,-42.969,-58.594,-26.367,-28.809,0.000
1700209060.074,-1.953,-29.785,-27.832,-15.625,0.000
1700209060.077,8.789,-31.250,-23.926,-15.137,0.000
1700209060.081,-22.949,-41.992,-21.973,-29.297,0.000
1700209060.085,-38.086,-35.156,-25.391,-36.621,0.000
1700209060.089,-7.324,-31.250,-32.227,-32.227,0.000
1700209060.093,18.555,-33.203,-32.715,-20.508,0.000
1700209060.097,-6.348,-38.574,-32.715,-30.273,0.000
1700209060.101,-50.781,-46.387,-34.180,-48.828,0.000
1700209060.105,-28.320,-41.016,-28.320,-34.668,0.000
1700209060.109,15.137,-39.062,-25.391,-8.301,0.000
1700209060.113,-1.465,-41.016,-28.320,-12.207,0.000
1700209060.117,-43.457,-37.598,-33.691,-29.785,0.000
1700209060.120,-40.527,-33.203,-32.227,-34.668,0.000
1700209060.124,6.348,-30.273,-23.926,-9.766,0.000
1700209060.128,-1.465,-30.273,-20.508,-6.836,0.000
1700209060.132,-43.457,-38.086,-28.809,-29.785,0.000
1700209060.136,-54.688,-50.293,-27.344,-32.227,0.000
1700209060.140,-18.066,-46.875,-23.438,-19.531,0.000
1700209060.144,0.000,-38.574,-20.508,-12.695,0.000
1700209060.148,-38.086,-42.969,-20.020,-23.926,0.000
1700209060.152,-56.641,-40.527,-20.508,-28.320,0.000
1700209060.156,-19.531,-31.250,-21.973,-11.230,0.000
1700209060.160,16.602,-40.527,-21.973,15.625,0.000
1700209060.163,-0.977,-41.504,-14.648,19.043,0.000
1700209060.167,-47.852,-32.227,-19.531,-21.973,0.000
1700209060.171,-43.945,-32.715,-30.762,-34.668,0.000
1700209060.175,3.906,-33.203,-29.297,-6.836,0.000
1700209060.179,-0.977,-29.297,-28.320,-13.184,0.000
1700209060.183,-47.363,-29.785,-31.738,-37.109,0.000
1700209060.187,-43.945,-38.574,-30.273,-24.414,0.000
1700209060.191,-0.977,-33.203,-26.367,-8.789,0.000
1700209060.195,0.000,-29.297,-25.391,-18.555,0.000
1700209060.199,-38.086,-33.691,-27.344,-34.668,0.000
1700209060.202,-48.340,-34.180,-24.902,-33.691,0.000
1700209060.206,-9.766,-30.762,-27.832,-14.648,0.000
1700209060.210,12.207,-33.691,-36.621,-11.230,0.000
1700209060.214,-18.066,-42.480,-34.180,-22.949,0.000
1700209060.218,-55.176,-27.344,-29.297,-35.645,0.000
1700209060.222,-27.344,-20.996,-33.203,-28.320,0.000
1700209060.226,-0.488,-28.320,-39.062,-21.484,0.000
1700209060.230,-24.414,-31.738,-36.133,-29.785,0.000
1700209060.234,-48.340,-34.668,-36.133,-38.574,0.000
1700209060.238,-35.156,-26.367,-38.574,-27.832,0.000
1700209060.242,4.395,-28.320,-35.645,-3.418,0.000
1700209060.245,-2.930,-40.527,-29.785,-6.836,0.000
1700209060.249,-38.574,-45.410,-24.902,-26.855,0.000
1700209060.253,-32.227,-45.410,-22.949,-29.297,0.000
1700209060.257,8.301,-31.738,-26.367,-4.883,0.000
1700209060.261,7.812,-24.902,-31.250,-8.301,0.000
1700209060.265,-29.785,-26.367,-28.809,-27.344,0.000
1700209060.269,-42.480,-25.391,-28.320,-32.715,0.000
1700209060.273,-10.742,-28.320,-25.879,-22.949,0.000
1700209060.277,3.418,-32.715,-25.879,-17.578,0.000
1700209060.281,-29.785,-44.434,-27.344,-31.738,0.000
1700209060.285,-61.035,-49.316,-24.414,-38.574,0.000
1700209060.288,-39.551,-45.898,-26.855,-25.879,0.000
1700209060.292,0.977,-42.969,-26.367,-16.113,0.000
1700209060.296,-12.695,-35.645,-20.996,-20.508,0.000
1700209060.300,-56.152,-35.645,-20.020,-41.992,0.000
1700209060.304,-45.410,-50.781,-21.484,-46.875,0.000
1700209060.308,-4.395,-45.898,-22.461,-27.832,0.000
1700209060.312,-5.859,-25.391,-24.902,-24.902,0.000
1700209060.316,-47.852,-30.273,-22.949,-38.086,0.000
1700209060.320,-56.152,-38.086,-16.113,-47.363,0.000
1700209060.324,-8.301,-37.109,-17.090,-23.438,0.000
1700209060.327,0.977,-32.227,-19.531,-20.996,0.000
1700209060.331,-41.016,-32.715,-23.438,-44.922,0.000
1700209060.335,-59.570,-36.133,-28.320,-51.270,0.000
1700209060.339,-15.625,-44.434,-27.344,-33.203,0.000
1700209060.343,13.184,-42.480,-21.973,-11.230,0.000
1700209060.347,-17.578,-28.320,-18.066,-20.508,0.000
1700209060.351,-46.875,-35.645,-18.066,-38.574,0.000
1700209060.355,-22.461,-41.016,-18.555,-22.461,0.000
1700209060.359,16.113,-27.832,-21.484,-4.395,0.000
1700209060.363,-0.488,-24.414,-24.902,-8.789,0.000
1700209060.367,-40.039,-35.156,-25.391,-24.902,0.000
1700209060.370,-37.598,-35.156,-25.391,-24.414,0.000
1700209060.374,0.000,-30.273,-28.809,-11.719,0.000
1700209060.378,-3.906,-42.969,-30.273,-23.926,0.000
1700209060.382,-50.781,-50.781,-28.809,-47.363,0.000
1700209060.386,-63.477,-41.992,-27.832,-51.758,0.000
1700209060.390,-13.672,-34.180,-24.902,-31.250,0.000
1700209060.394,-0.977,-30.273,-18.066,-27.832,0.000
1700209060.398,-35.156,-37.598,-24.414,-40.527,0.000
1700209060.402,-58.105,-43.457,-37.109,-48.828,0.000
1700209060.406,-29.297,-38.574,-32.227,-40.039,0.000
1700209060.409,-0.488,-39.062,-30.273,-30.273,0.000
1700209060.413,-30.273,-41.504,-30.762,-36.133,0.000
1700209060.417,-61.035,-40.527,-29.297,-47.852,0.000
1700209060.421,-35.156,-38.574,-22.461,-30.273,0.000
1700209060.425,7.812,-42.480,-20.020,-1.465,0.000
1700209060.429,-2.441,-43.457,-21.973,-7.812,0.000
1700209060.433,-35.156,-42.480,-18.555,-23.926,0.000
1700209060.437,-38.574,-41.016,-16.113,-29.785,0.000
1700209060.441,-6.348,-38.574,-17.090,-15.137,0.000
1700209060.445,6.836,-50.293,-18.555,-5.371,0.000
1700209060.449,-23.926,-48.828,-20.020,-18.555,0.000
1700209060.452,-41.504,-31.250,-22.949,-26.367,0.000
1700209060.456,-4.883,-23.926,-25.391,-8.301,0.000
1700209060.460,10.254,-29.785,-28.320,-7.812,0.000
1700209060.464,-22.461,-45.410,-29.785,-20.996,0.000
1700209060.468,-45.898,-49.316,-24.414,-32.227,0.000
1700209060.472,-22.949,-41.016,-21.484,-27.832,0.000
1700209060.476,5.859,-32.227,-26.855,-15.625,0.000
1700209060.480,-20.996,-40.039,-27.344,-31.250,0.000
1700209060.484,-61.523,-48.340,-22.461,-45.898,0.000
1700209060.488,-47.363,-40.527,-19.531,-40.527,0.000
1700209060.492,-3.906,-37.598,-22.461,-23.926,0.000
1700209060.495,-9.277,-32.227,-22.461,-23.438,0.000
1700209060.499,-55.176,-31.738,-22.949,-38.086,0.000
1700209060.503,-52.734,-38.574,-24.414,-29.297,0.000
1700209060.507,-9.766,-40.527,-21.484,-12.207,0.000
1700209060.511,-10.742,-37.109,-21.484,-20.996,0.000
1700209060.515,-30.273,-24.414,-26.367,-25.879,0.000
1700209060.519,-49.805,-21.973,-28.809,-34.668,0.000
1700209060.523,-19.043,-25.879,-26.855,-18.066,0.000
1700209060.527,4.395,-37.109,-26.367,-4.883,0.000
1700209060.531,-31.250,-41.504,-23.438,-17.578,0.000
1700209060.534,-55.176,-36.621,-27.344,-22.949,0.000
1700209060.538,-25.879,-39.062,-34.668,-18.555,0.000
1700209060.542,6.836,-46.875,-32.715,-8.301,0.000
1700209060.546,-12.207,-40.039,-31.738,-26.367,0.000
1700209060.550,-44.434,-31.738,-31.250,-41.992,0.000
1700209060.554,-32.715,-37.109,-32.715,-34.180,0.000
1700209060.558,-5.859,-42.969,-37.109,-23.438,0.000
1700209060.562,-4.883,-39.551,-32.227,-16.602,0.000
1700209060.566,-28.809,-36.133,-25.391,-26.367,0.000
1700209060.570,-46.387,-34.668,-25.391,-37.109,0.000
1700209060.574,-12.207,-33.691,-30.762,-21.973,0.000
1700209060.577,6.836,-38.574,-28.320,-6.348,0.000
1700209060.581,-22.949,-36.621,-25.879,-22.949,0.000
1700209060.585,-40.039,-37.598,-26.367,-39.062,0.000
1700209060.589,-17.090,-36.621,-22.461,-17.578,0.000
1700209060.593,3.418,-23.438,-28.809,-6.836,0.000
1700209060.597,-14.160,-29.297,-31.738,-26.367,0.000
1700209060.601,-48.340,-39.062,-27.344,-36.621,0.000
1700209060.605,-33.691,-43.457,-25.879,-29.297,0.000
1700209060.609,2.441,-45.898,-24.902,-28.809,0.000
1700209060.613,-11.719,-36.133,-24.902,-35.156,0.000
1700209060.617,-46.387,-32.715,-25.391,-41.016,0.000
1700209060.620,-44.434,-33.691,-27.832,-40.527,0.000
1700209060.624,-1.465,-40.527,-23.438,-20.508,0.000
1700209060.628,5.859,-42.480,-19.043,-11.719,0.000
1700209060.632,-30.273,-39.551,-23.438,-27.832,0.000
1700209060.636,-42.480,-37.109,-20.996,-31.250,0.000
1700209060.640,-2.441,-32.715,-20.020,-7.324,0.000
1700209060.644,5.859,-36.133,-25.879,-15.137,0.000
1700209060.648,-27.344,-34.180,-23.438,-30.273,0.000
1700209060.652,-48.340,-35.156,-20.020,-28.320,0.000
1700209060.656,-17.578,-38.574,-25.879,-20.020,0.000
1700209060.659,12.695,-40.527,-26.367,-16.602,0.000
1700209060.663,-16.113,-30.762,-26.367,-28.320,0.000
1700209060.667,-48.828,-36.621,-25.391,-40.527,0.000
1700209060.671,-38.086,-43.457,-22.949,-37.109,0.000
1700209060.675,-8.301,-39.062,-29.297,-22.949,0.000
1700209060.679,-11.719,-42.480,-28.809,-27.344,0.000
1700209060.683,-41.504,-40.527,-23.926,-39.062,0.000
1700209060.687,-47.363,-44.922,-24.902,-44.434,0.000
1700209060.691,-16.113,-46.875,-28.809,-37.109,0.000
1700209060.695,-3.906,-36.133,-30.762,-23.926,0.000
1700209060.699,-33.203,-35.645,-27.344,-34.668,0.000
1700209060.702,-52.246,-37.598,-25.879,-41.504,0.000
1700209060.706,-16.113,-33.691,-30.273,-25.879,0.000
1700209060.710,1.953,-38.574,-31.738,-21.973,0.000
1700209060.714,-40.039,-42.969,-27.344,-36.621,0.000
1700209060.718,-72.754,-41.016,-26.855,-51.758,0.000
1700209060.722,-49.316,-37.598,-33.691,-48.340,0.000
1700209060.726,-13.672,-48.340,-30.762,-23.438,0.000
1700209060.730,-29.297,-48.828,-25.391,-29.785,0.000
1700209060.734,-61.035,-43.457,-26.855,-52.734,0.000
1700209060.738,-39.062,-44.434,-30.273,-48.828,0.000
1700209060.742,8.789,-38.086,-32.715,-21.973,0.000
1700209060.745,11.719,-35.645,-26.367,-9.766,0.000
1700209060.749,-23.926,-38.086,-23.926,-30.273,0.000
1700209060.753,-30.762,-36.621,-26.367,-36.133,0.000
1700209060.757,1.953,-34.180,-20.508,-15.137,0.000
1700209060.761,1.953,-37.109,-20.996,-13.672,0.000
1700209060.765,-28.320,-34.180,-26.367,-22.949,0.000
1700209060.769,-45.898,-28.320,-21.484,-22.461,0.000
1700209060.773,-13.184,-31.250,-15.137,-11.230,0.000
1700209060.777,9.766,-36.621,-17.090,2.441,0.000
1700209060.781,-27.344,-40.527,-21.973,-18.066,0.000
1700209060.784,-56.641,-38.086,-18.066,-36.621,0.000
1700209060.788,-31.250,-41.504,-20.020,-26.855,0.000
1700209060.792,6.348,-47.852,-18.066,-12.695,0.000
1700209060.796,-11.230,-45.410,-16.113,-19.531,0.000
1700209060.800,-52.734,-36.621,-15.625,-30.762,0.000
1700209060.804,-41.992,-22.461,-16.113,-26.367,0.000
1700209060.808,-4.395,-24.414,-23.926,-16.602,0.000
1700209060.812,-9.277,-37.109,-26.367,-20.996,0.000
1700209060.816,-52.246,-41.992,-29.785,-34.668,0.000
1700209060.820,-66.895,-42.969,-30.762,-41.504,0.000
1700209060.824,-26.367,-43.945,-27.832,-31.738,0.000
1700209060.827,-4.883,-47.852,-27.832,-20.508,0.000
1700209060.831,-22.461,-39.551,-28.809,-26.855,0.000
1700209060.835,-43.945,-40.039,-29.297,-32.715,0.000
1700209060.839,-20.020,-39.551,-27.344,-20.508,0.000
1700209060.843,8.789,-31.250,-28.809,-13.672,0.000
1700209060.847,-15.137,-39.062,-27.344,-18.066,0.000
1700209060.851,-43.945,-43.457,-25.391,-33.691,0.000
1700209060.855,-30.273,-42.480,-23.926,-30.273,0.000
1700209060.859,-3.418,-38.086,-24.902,-11.719,0.000
1700209060.863,-14.648,-33.691,-24.414,-14.160,0.000
1700209060.867,-54.199,-37.598,-19.531,-26.367,0.000
1700209060.870,-61.523,-39.551,-23.438,-41.504,0.000
1700209060.874,-22.461,-39.062,-20.996,-31.250,0.000
1700209060.878,-18.555,-39.062,-18.066,-20.996,0.000
1700209060.882,-49.805,-38.574,-19.531,-30.273,0.000
1700209060.886,-57.617,-46.875,-17.578,-42.969,0.000
1700209060.890,-16.113,-46.387,-28.320,-26.367,0.000
1700209060.894,-0.977,-39.551,-36.133,-7.812,0.000
1700209060.898,-40.039,-45.898,-37.109,-25.391,0.000
1700209060.902,-62.012,-49.316,-37.109,-40.039,0.000
1700209060.906,-24.902,-42.480,-35.156,-23.438,0.000
1700209060.909,0.488,-29.785,-36.621,-9.277,0.000
1700209060.913,-23.438,-24.414,-36.133,-20.996,0.000
1700209060.917,-59.082,-28.809,-31.250,-34.180,0.000
1700209060.921,-51.758,-40.527,-28.320,-23.926,0.000
1700209060.925,-7.324,-36.133,-28.320,-11.719,0.000
1700209060.929,-19.531,-32.715,-24.414,-22.949,0.000
1700209060.933,-55.176,-43.945,-25.879,-34.180,0.000
1700209060.937,-43.457,-42.480,-35.156,-30.762,0.000
1700209060.941,7.812,-38.086,-30.273,4.395,0.000
1700209060.945,13.672,-42.480,-18.066,6.836,0.000
1700209060.949,-26.855,-36.621,-18.066,-16.113,0.000
1700209060.952,-48.828,-30.273,-20.020,-19.043,0.000
1700209060.956,-20.996,-32.227,-16.113,-23.926,0.000
1700209060.960,-3.418,-30.273,-16.113,-30.273,0.000
1700209060.964,-39.551,-33.203,-21.973,-41.016,0.000
1700209060.968,-67.871,-42.480,-26.367,-58.594,0.000
1700209060.972,-44.922,-43.945,-30.273,-46.875,0.000
1700209060.976,-11.230,-41.992,-32.227,-23.438,0.000
1700209060.980,-17.578,-40.527,-25.391,-26.855,0.000
1700209060.984,-47.852,-34.180,-21.484,-32.715,0.000
1700209060.988,-35.156,-34.180,-22.949,-19.043,0.000
1700209060.991,6.348,-36.621,-20.996,-7.324,0.000
1700209060.995,-2.930,-38.086,-23.438,-14.160,0.000
1700209060.999,-41.504,-44.434,-21.484,-18.555,0.000
1700209061.003,-47.852,-50.781,-15.137,-23.926,0.000
1700209061.007,-6.836,-48.828,-14.648,-14.648,0.000
1700209061.011,2.441,-41.504,-22.949,-8.301,0.000
1700209061.015,-35.156,-40.039,-25.391,-22.949,0.000
1700209061.019,-56.152,-41.016,-22.461,-38.574,0.000
1700209061.023,-21.484,-39.551,-22.949,-25.391,0.000
1700209061.027,14.160,-31.738,-21.973,-3.906,0.000
1700209061.031,-9.277,-26.855,-25.879,-20.020,0.000
1700209061.034,-45.898,-26.855,-20.508,-34.668,0.000
1700209061.038,-32.227,-32.227,-14.648,-25.391,0.000
1700209061.042,5.371,-42.480,-21.484,-6.836,0.000
1700209061.046,-7.324,-49.316,-18.066,-6.348,0.000
1700209061.050,-54.688,-39.551,-17.090,-27.344,0.000
1700209061.054,-51.758,-26.855,-21.973,-26.367,0.000
1700209061.058,-11.230,-34.180,-26.367,-9.277,0.000
1700209061.062,-8.301,-40.039,-27.344,-10.254,0.000
1700209061.066,-47.852,-39.551,-30.762,-32.227,0.000
1700209061.070,-63.477,-40.527,-29.785,-41.016,0.000
1700209061.074,-21.973,-33.203,-25.391,-21.484,0.000
1700209061.077,0.488,-31.250,-20.996,-6.348,0.000
1700209061.081,-36.133,-40.527,-21.484,-25.879,0.000
1700209061.085,-67.383,-37.598,-25.879,-43.945,0.000
1700209061.089,-35.645,-29.785,-25.391,-27.344,0.000
1700209061.093,1.953,-36.133,-17.090,-12.695,0.000
1700209061.097,-15.625,-28.320,-17.578,-24.414,0.000
1700209061.101,-51.270,-27.344,-26.855,-38.574,0.000
1700209061.105,-36.621,-37.109,-26.855,-27.832,0.000
1700209061.109,-1.465,-35.645,-28.320,-22.461,0.000
1700209061.113,-10.254,-33.203,-24.902,-30.273,0.000
1700209061.116,-39.062,-42.480,-21.484,-34.180,0.000
1700209061.120,-44.434,-49.805,-26.855,-39.062,0.000
1700209061.124,-2.441,-41.504,-31.250,-25.391,0.000
1700209061.128,5.371,-37.598,-29.297,-15.625,0.000
1700209061.132,-37.598,-38.574,-28.320,-26.367,0.000
1700209061.136,-51.270,-44.434,-26.367,-32.227,0.000
1700209061.140,-11.719,-52.246,-27.344,-19.531,0.000
1700209061.144,5.859,-42.969,-27.344,-10.742,0.000
1700209061.148,-18.555,-37.598,-22.461,-18.066,0.000
1700209061.152,-45.410,-37.598,-20.508,-38.574,0.000
1700209061.156,-20.020,-30.762,-22.949,-24.902,0.000
1700209061.159,11.719,-24.902,-24.414,-7.324,0.000
1700209061.163,-10.254,-27.344,-21.973,-16.113,0.000
1700209061.167,-51.270,-30.762,-25.879,-36.621,0.000
1700209061.171,-43.457,-34.668,-33.203,-50.781,0.000
1700209061.175,-0.977,-33.203,-33.203,-30.273,0.000
1700209061.179,-9.277,-31.250,-28.809,-35.156,0.000
1700209061.183,-47.363,-47.852,-26.367,-48.828,0.000
1700209061.187,-56.152,-50.293,-29.785,-44.922,0.000
1700209061.191,-18.066,-40.039,-35.156,-21.973,0.000
1700209061.195,-9.277,-33.691,-33.203,-13.672,0.000
1700209061.199,-42.969,-28.809,-24.902,-35.156,0.000
1700209061.202,-61.035,-33.203,-26.855,-49.316,0.000
1700209061.206,-21.484,-41.992,-29.785,-33.691,0.000
1700209061.210,-2.441,-41.016,-32.715,-25.879,0.000
1700209061.214,-34.668,-36.133,-31.738,-42.480,0.000
1700209061.218,-62.012,-36.621,-29.785,-55.664,0.000
1700209061.222,-39.551,-48.340,-27.832,-35.645,0.000
1700209061.226,-6.836,-49.805,-21.484,-21.484,0.000
1700209061.230,-22.949,-37.598,-20.508,-36.133,0.000
1700209061.234,-64.941,-39.551,-26.855,-52.246,0.000
1700209061.238,-59.570,-41.016,-29.785,-53.223,0.000
1700209061.241,-2.441,-36.133,-23.926,-33.691,0.000
1700209061.245,-9.766,-41.992,-21.484,-40.527,0.000
1700209061.249,-41.016,-46.875,-22.949,-48.828,0.000
1700209061.253,-43.457,-36.621,-28.320,-41.016,0.000
1700209061.257,-14.648,-41.504,-26.855,-23.926,0.000
1700209061.261,-6.348,-49.316,-24.902,-24.902,0.000
1700209061.265,-43.457,-45.898,-28.320,-33.203,0.000
1700209061.269,-61.035,-41.504,-23.438,-34.668,0.000
1700209061.273,-28.320,-38.086,-17.090,-28.320,0.000
1700209061.277,0.488,-45.898,-15.625,-19.043,0.000
1700209061.281,-22.461,-44.434,-14.648,-28.809,0.000
1700209061.284,-54.688,-35.156,-17.578,-34.180,0.000
1700209061.288,-36.621,-32.227,-23.438,-30.273,0.000
1700209061.292,-0.977,-42.969,-24.902,-19.531,0.000
1700209061.296,-12.695,-47.363,-27.344,-22.461,0.000
1700209061.300,-60.059,-43.457,-24.414,-40.039,0.000
1700209061.304,-62.500,-46.875,-21.973,-38.574,0.000
1700209061.308,-15.625,-39.062,-19.531,-29.297,0.000
1700209061.312,-9.766,-36.133,-17.578,-31.250,0.000
1700209061.316,-48.828,-32.715,-23.438,-41.992,0.000
1700209061.320,-60.059,-34.180,-25.879,-46.387,0.000
1700209061.324,-6.836,-38.574,-26.855,-19.043,0.000
1700209061.327,9.766,-49.805,-24.902,-7.812,0.000
1700209061.331,-31.738,-52.734,-26.367,-29.785,0.000
1700209061.335,-62.012,-41.016,-30.762,-43.945,0.000
1700209061.339,-31.250,-39.062,-28.809,-36.621,0.000
1700209061.343,1.953,-43.945,-16.602,-17.578,0.000
1700209061.347,-19.043,-39.062,-13.672,-22.461,0.000
1700209061.351,-47.852,-31.738,-20.508,-42.969,0.000
1700209061.355,-35.156,-34.668,-22.949,-41.504,0.000
1700209061.359,-2.930,-37.109,-26.367,-23.926,0.000
1700209061.363,-10.742,-43.945,-26.855,-19.043,0.000
1700209061.366,-46.875,-49.316,-26.855,-31.250,0.000
1700209061.370,-48.340,-43.945,-25.879,-35.645,0.000
1700209061.374,-1.953,-43.945,-24.902,-14.648,0.000
1700209061.378,2.441,-42.480,-22.949,-7.812,0.000
1700209061.382,-41.504,-32.227,-20.508,-23.926,0.000
1700209061.386,-55.664,-41.992,-21.484,-34.668,0.000
1700209061.390,-14.160,-48.828,-23.926,-19.043,0.000
1700209061.394,1.953,-31.738,-23.926,-15.137,0.000
1700209061.398,-30.273,-29.785,-23.926,-30.762,0.000
1700209061.402,-53.711,-45.898,-26.855,-41.992,0.000
1700209061.406,-21.973,-46.875,-31.738,-20.020,0.000
1700209061.409,12.695,-41.016,-33.203,-6.836,0.000
1700209061.413,-6.836,-47.852,-25.391,-16.113,0.000
1700209061.417,-44.922,-46.875,-24.414,-24.414,0.000
1700209061.421,-38.086,-42.480,-28.809,-20.508,0.000
1700209061.425,-0.488,-41.992,-22.949,-4.395,0.000
1700209061.429,-10.742,-35.645,-27.832,-10.742,0.000
1700209061.433,-55.176,-44.434,-34.668,-27.344,0.000
1700209061.437,-62.988,-48.828,-27.344,-29.297,0.000
1700209061.441,-16.113,-46.875,-27.344,-17.578,0.000
1700209061.445,-8.789,-57.617,-31.250,-20.508,0.000
1700209061.449,-43.457,-40.527,-35.156,-44.434,0.000
1700209061.452,-59.082,-28.809,-34.668,-58.105,0.000
1700209061.456,-30.762,-34.668,-29.297,-45.898,0.000
1700209061.460,-13.672,-31.250,-25.879,-34.180,0.000
1700209061.464,-42.969,-40.039,-23.438,-42.969,0.000
1700209061.468,-69.824,-45.898,-22.949,-51.758,0.000
1700209061.472,-48.340,-31.738,-22.461,-39.551,0.000
1700209061.476,-12.695,-36.133,-23.438,-21.973,0.000
1700209061.480,-28.320,-44.434,-27.344,-32.227,0.000
1700209061.484,-59.082,-31.738,-31.250,-50.293,0.000
1700209061.488,-43.945,-22.949,-29.785,-42.480,0.000
1700209061.491,-2.930,-23.438,-26.855,-21.484,0.000
1700209061.495,-20.996,-32.715,-29.297,-26.367,0.000
1700209061.499,-62.988,-45.898,-29.297,-48.828,0.000
1700209061.503,-63.477,-45.410,-26.855,-52.246,0.000
1700209061.507,-24.414,-36.621,-24.902,-35.156,0.000
1700209061.511,-4.395,-30.762,-25.391,-32.715,0.000
1700209061.515,-41.504,-43.945,-25.879,-41.992,0.000
1700209061.519,-61.523,-43.945,-26.855,-51.270,0.000
1700209061.523,-22.949,-22.461,-27.344,-31.250,0.000
1700209061.527,5.859,-23.926,-24.414,-15.137,0.000
1700209061.531,-13.672,-22.461,-17.090,-27.344,0.000
1700209061.534,-41.016,-13.672,-23.926,-32.227,0.000
1700209061.538,-24.902,-20.020,-31.738,-28.809,0.000
1700209061.542,9.766,-28.809,-26.367,-17.578,0.000
1700209061.546,-7.324,-31.738,-25.879,-33.203,0.000
1700209061.550,-42.969,-43.457,-26.855,-44.434,0.000
1700209061.554,-38.574,-53.711,-23.438,-35.645,0.000
1700209061.558,0.000,-43.945,-22.461,-20.508,0.000
1700209061.562,2.441,-35.645,-23.926,-14.160,0.000
1700209061.566,-36.133,-30.762,-23.438,-23.926,0.000
1700209061.570,-53.711,-32.715,-26.855,-41.016,0.000
1700209061.574,-15.137,-25.391,-26.367,-29.785,0.000
1700209061.577,8.301,-19.043,-19.531,-9.766,0.000
1700209061.581,-25.391,-30.762,-21.484,-25.879,0.000
1700209061.585,-51.758,-40.527,-25.391,-26.855,0.000
1700209061.589,-22.461,-38.086,-25.391,-12.695,0.000
1700209061.593,1.465,-31.738,-27.344,-15.625,0.000
1700209061.597,-23.438,-37.598,-23.926,-23.438,0.000
1700209061.601,-58.594,-40.527,-28.809,-31.250,0.000
1700209061.605,-42.969,-40.039,-29.297,-26.367,0.000
1700209061.609,-1.953,-41.992,-22.461,-14.160,0.000
1700209061.613,-13.672,-46.387,-22.949,-7.324,0.000
1700209061.616,-55.664,-47.852,-29.785,-25.391,0.000
1700209061.620,-52.734,-32.715,-27.344,-43.945,0.000
1700209061.624,-6.836,-35.156,-26.855,-27.344,0.000
1700209061.628,-6.348,-40.527,-30.273,-22.461,0.000
1700209061.632,-45.898,-29.297,-24.902,-40.527,0.000
1700209061.636,-66.406,-31.250,-25.391,-50.781,0.000
1700209061.640,-20.020,-36.621,-24.414,-32.715,0.000
1700209061.644,3.906,-40.039,-25.391,-16.602,0.000
1700209061.648,-38.574,-49.805,-29.785,-29.785,0.000
1700209061.652,-61.035,-41.504,-23.926,-40.039,0.000
1700209061.656,-30.273,-36.133,-17.578,-20.508,0.000
1700209061.659,-1.953,-47.363,-20.508,-4.395,0.000
1700209061.663,-21.973,-40.039,-25.391,-20.508,0.000
1700209061.667,-63.477,-31.738,-26.855,-38.574,0.000
1700209061.671,-49.316,-27.344,-23.438,-36.621,0.000
1700209061.675,-2.441,-27.344,-23.926,-26.367,0.000
1700209061.679,-12.207,-35.645,-24.414,-30.762,0.000
1700209061.683,-48.340,-42.480,-26.855,-48.828,0.000
1700209061.687,-52.734,-46.387,-32.715,-46.875,0.000
1700209061.691,-17.090,-51.758,-28.809,-30.273,0.000
1700209061.695,-4.883,-54.688,-27.832,-38.086,0.000
1700209061.698,-35.645,-39.551,-27.344,-45.898,0.000
1700209061.702,-49.805,-30.762,-21.484,-43.945,0.000
1700209061.706,-18.066,-33.203,-19.043,-30.762,0.000
1700209061.710,-0.488,-35.156,-18.066,-20.508,0.000
1700209061.714,-28.320,-41.992,-18.066,-36.621,0.000
1700209061.718,-62.012,-44.434,-21.484,-51.758,0.000
1700209061.722,-39.062,-42.480,-19.043,-37.598,0.000
1700209061.726,-2.441,-44.434,-17.090,-25.391,0.000
1700209061.730,-19.043,-47.852,-18.555,-27.344,0.000
1700209061.734,-56.152,-44.922,-18.555,-37.109,0.000
1700209061.738,-45.898,-44.434,-17.578,-31.250,0.000
1700209061.741,-10.254,-44.434,-16.602,-14.648,0.000
1700209061.745,-21.484,-43.945,-20.996,-22.461,0.000
1700209061.749,-52.734,-53.711,-23.926,-41.504,0.000
1700209061.753,-62.988,-49.316,-21.484,-48.340,0.000
1700209061.757,-25.391,-44.922,-23.926,-31.250,0.000
1700209061.761,-1.953,-45.898,-24.414,-12.207,0.000
1700209061.765,-29.785,-39.062,-25.879,-19.043,0.000
1700209061.769,-61.035,-33.203,-29.297,-41.504,0.000
1700209061.773,-28.320,-27.832,-29.297,-34.668,0.000
1700209061.777,3.418,-30.273,-35.645,-20.508,0.000
1700209061.781,-24.902,-33.203,-39.062,-34.180,0.000
1700209061.784,-54.199,-26.855,-29.297,-42.969,0.000
1700209061.788,-35.645,-25.879,-20.996,-20.996,0.000
1700209061.792,-1.953,-34.668,-19.531,-10.254,0.000
1700209061.796,-20.508,-34.180,-21.973,-23.926,0.000
1700209061.800,-70.312,-33.203,-29.785,-42.969,0.000
1700209061.804,-61.035,-41.016,-26.367,-35.156,0.000
1700209061.808,-14.648,-42.480,-19.043,-11.719,0.000
1700209061.812,-6.348,-29.785,-26.855,-20.508,0.000
1700209061.816,-28.809,-17.090,-25.391,-30.273,0.000
1700209061.820,-41.992,-21.973,-19.043,-26.855,0.000
1700209061.824,1.465,-27.344,-20.508,-3.418,0.000
1700209061.827,16.113,-34.180,-20.020,5.859,0.000
1700209061.831,-20.508,-34.180,-22.461,-24.902,0.000
1700209061.835,-50.293,-26.855,-23.438,-48.828,0.000
1700209061.839,-33.203,-41.992,-27.832,-40.527,0.000
1700209061.843,-5.859,-49.805,-34.180,-28.320,0.000
1700209061.847,-28.809,-49.805,-31.738,-35.645,0.000
1700209061.851,-58.594,-46.387,-24.414,-51.270,0.000
1700209061.855,-35.156,-37.598,-20.020,-37.109,0.000
1700209061.859,6.836,-31.250,-21.484,-13.672,0.000
1700209061.863,-6.348,-28.320,-25.879,-25.879,0.000
1700209061.866,-42.480,-37.598,-27.344,-38.574,0.000
1700209061.870,-46.387,-39.062,-24.414,-39.551,0.000
1700209061.874,-7.812,-33.691,-24.414,-28.809,0.000
1700209061.878,3.418,-44.434,-22.949,-21.973,0.000
1700209061.882,-31.250,-62.012,-23.438,-29.785,0.000
1700209061.886,-45.898,-46.387,-23.438,-41.016,0.000
1700209061.890,-6.836,-32.227,-24.414,-25.879,0.000
1700209061.894,10.742,-35.156,-28.320,-20.996,0.000
1700209061.898,-20.020,-36.621,-26.855,-30.273,0.000
1700209061.902,-48.828,-36.133,-24.902,-36.133,0.000
1700209061.906,-31.250,-34.180,-28.320,-35.645,0.000
1700209061.909,2.930,-38.574,-33.203,-21.973,0.000
1700209061.913,-13.672,-39.551,-33.691,-23.438,0.000
1700209061.917,-53.223,-51.270,-27.344,-48.340,0.000
1700209061.921,-51.270,-49.805,-27.344,-42.969,0.000
1700209061.925,-5.859,-46.387,-29.297,-20.508,0.000
1700209061.929,2.930,-57.617,-29.297,-25.391,0.000
1700209061.933,-34.668,-46.387,-28.809,-31.738,0.000
1700209061.937,-42.969,-34.180,-20.996,-31.738,0.000
1700209061.941,-7.812,-38.086,-20.508,-20.020,0.000
1700209061.945,-3.418,-39.551,-22.949,-13.184,0.000
1700209061.948,-39.551,-36.621,-16.602,-31.250,0.000
1700209061.952,-59.082,-33.691,-23.926,-52.734,0.000
1700209061.956,-22.949,-40.039,-35.156,-41.016,0.000
1700209061.960,5.859,-42.480,-30.273,-24.414,0.000
1700209061.964,-20.508,-39.062,-25.879,-37.598,0.000
1700209061.968,-51.270,-32.715,-24.902,-54.199,0.000
1700209061.972,-34.668,-20.020,-25.879,-40.527,0.000
1700209061.976,4.395,-21.973,-26.367,-25.879,0.000
1700209061.980,-9.766,-31.250,-27.344,-32.227,0.000
1700209061.984,-50.293,-43.457,-31.250,-38.086,0.000
1700209061.988,-41.504,-46.387,-29.785,-40.039,0.000
1700209061.991,-6.836,-36.621,-32.227,-31.738,0.000
1700209061.995,-14.160,-34.180,-38.574,-28.320,0.000
1700209061.999,-52.246,-32.227,-39.062,-38.086,0.000
1700209062.003,-67.383,-41.016,-36.133,-44.434,0.000
1700209062.007,-29.297,-50.293,-31.738,-19.531,0.000
1700209062.011,-13.184,-36.621,-28.809,-15.625,0.000
1700209062.015,-44.434,-33.691,-29.785,-31.250,0.000
1700209062.019,-65.918,-48.340,-30.762,-36.621,0.000
1700209062.023,-33.203,-48.828,-27.344,-24.414,0.000
1700209062.027,-4.883,-38.574,-26.367,-17.578,0.000
1700209062.031,-27.344,-36.621,-30.273,-31.250,0.000
1700209062.034,-60.059,-35.645,-27.344,-37.109,0.000
1700209062.038,-46.387,-33.691,-20.020,-27.344,0.000
1700209062.042,-1.465,-32.715,-22.949,-11.719,0.000
1700209062.046,-6.348,-35.156,-27.344,-10.742,0.000
1700209062.050,-42.480,-46.875,-30.762,-27.344,0.000
1700209062.054,-47.363,-54.688,-26.855,-34.668,0.000
1700209062.058,-1.953,-37.598,-17.578,-15.137,0.000
1700209062.062,10.254,-26.855,-20.996,-5.859,0.000
1700209062.066,-31.738,-33.691,-20.508,-19.043,0.000
1700209062.070,-53.711,-37.598,-20.996,-32.715,0.000
1700209062.073,-7.812,-36.133,-25.391,-13.672,0.000
1700209062.077,16.113,-37.598,-21.973,4.395,0.000
1700209062.081,-17.090,-33.691,-26.367,-18.555,0.000
1700209062.085,-48.340,-28.809,-29.785,-42.480,0.000
1700209062.089,-23.926,-41.504,-24.414,-26.367,0.000
1700209062.093,11.719,-46.387,-22.949,-13.672,0.000
1700209062.097,-19.043,-29.297,-27.344,-26.367,0.000
1700209062.101,-59.082,-20.508,-24.414,-32.227,0.000
1700209062.105,-43.945,-30.273,-19.531,-28.320,0.000
1700209062.109,-5.371,-35.156,-20.996,-18.066,0.000
1700209062.113,-7.812,-34.668,-24.902,-18.066,0.000
1700209062.116,-46.875,-38.574,-28.320,-34.668,0.000
1700209062.120,-60.059,-31.738,-20.996,-39.062,0.000
1700209062.124,-13.184,-38.086,-24.414,-12.207,0.000
1700209062.128,-3.418,-48.340,-31.738,-5.859,0.000
1700209062.132,-36.133,-33.691,-25.879,-27.832,0.000
1700209062.136,-44.922,-23.926,-21.973,-34.668,0.000
1700209062.140,-15.625,-21.973,-19.043,-12.695,0.000
1700209062.144,0.977,-20.508,-17.578,-8.789,0.000
1700209062.148,-22.949,-27.344,-19.531,-25.879,0.000
1700209062.152,-55.664,-39.551,-20.020,-40.527,0.000
1700209062.156,-32.715,-41.504,-21.484,-31.250,0.000
1700209062.159,-3.906,-40.527,-23.438,-24.902,0.000
1700209062.163,-20.020,-39.551,-21.484,-37.598,0.000
1700209062.167,-43.457,-51.270,-18.555,-35.645,0.000
1700209062.171,-29.785,-48.340,-20.508,-26.367,0.000
1700209062.175,8.301,-24.414,-22.949,-7.324,0.000
1700209062.179,0.000,-27.832,-20.996,-12.695,0.000
1700209062.183,-37.109,-45.898,-20.996,-35.645,0.000
1700209062.187,-51.758,-40.039,-30.273,-41.992,0.000
1700209062.191,-18.555,-28.320,-36.133,-44.434,0.000
1700209062.195,-9.277,-41.016,-36.133,-46.875,0.000
1700209062.198,-44.922,-46.387,-28.809,-54.199,0.000
1700209062.202,-70.312,-46.387,-25.391,-60.547,0.000
1700209062.206,-40.527,-47.852,-28.809,-41.016,0.000
1700209062.210,-3.906,-44.434,-22.949,-19.043,0.000
1700209062.214,-25.879,-43.457,-19.531,-28.809,0.000
1700209062.218,-62.988,-41.504,-26.855,-48.828,0.000
1700209062.222,-43.457,-39.551,-28.809,-46.387,0.000
1700209062.226,1.465,-42.969,-22.461,-32.715,0.000
1700209062.230,-16.602,-48.340,-20.020,-33.691,0.000
1700209062.234,-59.570,-53.223,-27.344,-53.223,0.000
1700209062.238,-50.293,-40.039,-28.320,-52.734,0.000
1700209062.241,-7.812,-27.832,-26.367,-24.414,0.000
1700209062.245,-1.465,-35.156,-26.367,-21.484,0.000
1700209062.249,-39.062,-34.180,-25.879,-50.293,0.000
1700209062.253,-55.664,-31.738,-26.367,-51.758,0.000
1700209062.257,-15.625,-38.086,-24.902,-31.250,0.000
1700209062.261,-7.324,-41.992,-26.855,-37.109,0.000
1700209062.265,-38.086,-42.969,-23.438,-45.898,0.000
1700209062.269,-59.570,-48.340,-24.902,-57.617,0.000
1700209062.273,-30.273,-46.875,-23.926,-41.504,0.000
1700209062.277,-6.348,-42.969,-15.625,-24.902,0.000
1700209062.280,-34.180,-39.551,-19.043,-39.551,0.000
1700209062.284,-63.477,-29.785,-24.902,-54.688,0.000
1700209062.288,-57.129,-35.156,-28.809,-53.223,0.000
1700209062.292,-20.020,-37.109,-32.227,-38.086,0.000
1700209062.296,-26.367,-30.762,-30.762,-42.969,0.000
1700209062.300,-60.059,-29.785,-28.320,-48.828,0.000
1700209062.304,-57.129,-35.156,-28.320,-43.457,0.000
1700209062.308,-18.066,-34.668,-24.902,-32.715,0.000
1700209062.312,-15.137,-31.738,-24.414,-36.621,0.000
1700209062.316,-52.734,-29.785,-24.902,-52.246,0.000
1700209062.320,-70.801,-35.645,-25.391,-62.988,0.000
1700209062.323,-31.250,-46.875,-25.391,-46.875,0.000
1700209062.327,0.000,-41.016,-27.832,-29.785,0.000
1700209062.331,-19.531,-35.645,-34.668,-33.203,0.000
1700209062.335,-50.293,-35.645,-33.203,-40.527,0.000
1700209062.339,-27.832,-32.715,-22.949,-35.645,0.000
1700209062.343,4.883,-29.785,-22.461,-18.066,0.000
1700209062.347,-16.113,-37.109,-22.949,-16.602,0.000
1700209062.351,-45.410,-37.598,-22.949,-36.621,0.000
1700209062.355,-32.227,-25.879,-20.996,-35.156,0.000
1700209062.359,10.742,-24.414,-20.508,-19.043,0.000
1700209062.363,17.090,-31.250,-23.438,-12.207,0.000
1700209062.366,-32.227,-40.039,-20.508,-23.438,0.000
1700209062.370,-59.570,-37.109,-17.090,-42.480,0.000
1700209062.374,-14.160,-41.504,-20.996,-22.949,0.000
1700209062.378,1.465,-44.434,-22.949,-6.348,0.000
1700209062.382,-36.621,-42.969,-25.391,-23.438,0.000
1700209062.386,-59.082,-44.922,-24.902,-43.457,0.000
1700209062.390,-19.043,-41.504,-14.648,-25.879,0.000
1700209062.394,9.766,-34.180,-14.648,-16.113,0.000
1700209062.398,-21.484,-33.203,-22.461,-32.715,0.000
1700209062.402,-51.758,-39.062,-16.113,-40.527,0.000
1700209062.405,-28.809,-42.969,-13.184,-28.320,0.000
1700209062.409,5.859,-42.480,-18.555,-11.230,0.000
1700209062.413,-16.113,-44.434,-18.066,-21.484,0.000
1700209062.417,-54.688,-41.016,-19.531,-39.551,0.000
1700209062.421,-40.527,-33.691,-16.602,-36.133,0.000
1700209062.425,0.000,-44.434,-14.648,-15.625,0.000
1700209062.429,-8.301,-43.945,-20.996,-19.531,0.000
1700209062.433,-41.992,-34.180,-23.438,-33.203,0.000
1700209062.437,-50.293,-39.062,-27.832,-32.227,0.000
1700209062.441,-10.254,-34.180,-25.879,-20.020,0.000
1700209062.445,9.277,-28.809,-17.578,-13.184,0.000
1700209062.448,-20.508,-27.344,-25.879,-18.066,0.000
1700209062.452,-55.176,-32.227,-30.273,-21.973,0.000
1700209062.456,-26.855,-35.645,-23.926,-2.441,0.000
1700209062.460,10.742,-28.320,-19.043,6.348,0.000
1700209062.464,-15.625,-33.203,-20.996,-15.625,0.000
1700209062.468,-49.316,-37.109,-20.020,-30.762,0.000
1700209062.472,-36.133,-34.668,-20.996,-22.949,0.000
1700209062.476,-3.418,-37.598,-20.996,-10.742,0.000
1700209062.480,-12.207,-45.410,-17.578,-8.789,0.000
1700209062.484,-46.875,-44.434,-21.973,-24.902,0.000
1700209062.488,-44.434,-31.738,-22.949,-23.438,0.000
1700209062.491,-5.859,-29.785,-25.391,-2.441,0.000
1700209062.495,-1.953,-28.320,-24.414,-3.906,0.000
1700209062.499,-28.809,-29.785,-21.973,-14.648,0.000
1700209062.503,-36.621,-32.715,-28.809,-26.367,0.000
1700209062.507,1.465,-26.367,-18.555,-12.695,0.000
1700209062.511,16.602,-25.879,-9.277,0.488,0.000
1700209062.515,-20.996,-33.691,-16.602,-3.906,0.000
1700209062.519,-50.781,-40.039,-20.996,-26.367,0.000
1700209062.523,-34.180,-35.156,-26.855,-30.273,0.000
1700209062.527,-1.953,-36.621,-29.785,-4.395,0.000
1700209062.530,-17.578,-44.434,-29.785,-17.578,0.000
1700209062.534,-56.641,-47.363,-24.902,-35.156,0.000
1700209062.538,-32.227,-41.504,-17.578,-22.949,0.000
1700209062.542,7.812,-38.574,-15.625,-1.953,0.000
1700209062.546,-6.836,-36.621,-17.090,-4.883,0.000
1700209062.550,-44.434,-33.203,-19.531,-20.020,0.000
1700209062.554,-39.551,-31.250,-24.414,-11.719,0.000
1700209062.558,4.395,-32.715,-20.020,8.789,0.000
1700209062.562,1.465,-40.039,-17.578,-0.488,0.000
1700209062.566,-43.457,-38.086,-20.996,-25.391,0.000
1700209062.570,-58.594,-42.969,-18.066,-31.250,0.000
1700209062.573,-22.461,-41.992,-18.066,-9.766,0.000
1700209062.577,-2.441,-41.992,-25.391,-2.441,0.000
1700209062.581,-37.109,-52.734,-23.926,-21.973,0.000
1700209062.585,-68.848,-49.805,-19.531,-29.297,0.000
1700209062.589,-33.691,-36.133,-20.020,-9.766,0.000
1700209062.593,-4.883,-30.273,-20.996,-0.488,0.000
1700209062.597,-25.391,-35.645,-20.996,-8.301,0.000
1700209062.601,-52.734,-37.109,-17.578,-22.949,0.000
1700209062.605,-40.527,-40.527,-15.137,-15.625,0.000
1700209062.609,-4.395,-48.340,-20.508,-6.348,0.000
1700209062.613,-15.625,-48.828,-23.926,-23.926,0.000
1700209062.616,-51.758,-42.969,-25.879,-29.297,0.000
1700209062.620,-62.012,-40.527,-29.297,-31.738,0.000
1700209062.624,-22.949,-36.621,-27.344,-15.137,0.000
1700209062.628,-5.859,-40.527,-20.508,-1.953,0.000
1700209062.632,-36.621,-43.457,-20.996,-16.113,0.000
1700209062.636,-58.105,-39.551,-26.855,-25.879,0.000
1700209062.640,-27.344,-40.527,-26.855,-13.184,0.000
1700209062.644,-6.348,-35.156,-23.438,-10.742,0.000
1700209062.648,-36.133,-31.250,-26.855,-28.320,0.000
1700209062.652,-64.941,-36.621,-33.691,-47.363,0.000
1700209062.655,-45.898,-36.133,-35.645,-44.434,0.000
1700209062.659,-7.324,-36.133,-30.762,-24.902,0.000
1700209062.663,-17.090,-41.992,-25.391,-27.344,0.000
1700209062.667,-56.152,-45.410,-27.832,-44.922,0.000
1700209062.671,-48.340,-41.504,-26.367,-42.480,0.000
1700209062.675,-10.254,-37.109,-28.320,-27.344,0.000
1700209062.679,-11.230,-37.109,-30.762,-25.879,0.000
1700209062.683,-46.387,-36.621,-26.367,-37.109,0.000
1700209062.687,-54.199,-36.133,-22.461,-35.156,0.000
1700209062.691,-16.113,-32.715,-27.344,-17.090,0.000
1700209062.695,-7.324,-40.039,-28.320,-11.719,0.000
1700209062.698,-42.969,-45.898,-29.297,-22.949,0.000
1700209062.702,-66.895,-42.480,-31.250,-39.062,0.000
1700209062.706,-38.574,-37.109,-30.273,-33.691,0.000
1700209062.710,-9.766,-36.621,-35.645,-20.996,0.000
1700209062.714,-26.855,-32.227,-33.691,-25.391,0.000
1700209062.718,-52.246,-36.133,-27.832,-40.527,0.000
1700209062.722,-31.250,-48.340,-28.809,-34.668,0.000
1700209062.726,9.277,-41.504,-32.227,-11.719,0.000
1700209062.730,-11.719,-42.969,-27.832,-16.602,0.000
1700209062.734,-49.805,-42.480,-18.066,-37.598,0.000
1700209062.738,-48.340,-41.016,-22.461,-35.156,0.000
1700209062.741,-11.230,-42.480,-25.391,-13.672,0.000
1700209062.745,-13.672,-36.621,-22.949,-25.879,0.000
1700209062.749,-51.758,-34.668,-28.809,-49.316,0.000
1700209062.753,-63.965,-40.527,-27.344,-50.293,0.000
1700209062.757,-28.809,-38.574,-20.996,-31.250,0.000
1700209062.761,-10.742,-36.621,-24.902,-24.414,0.000
1700209062.765,-37.598,-51.758,-21.973,-35.645,0.000
1700209062.769,-61.523,-48.340,-22.461,-48.828,0.000
1700209062.773,-37.109,-39.062,-24.414,-41.504,0.000
1700209062.777,-10.254,-40.039,-23.438,-27.832,0.000
1700209062.780,-26.855,-36.133,-26.855,-37.598,0.000
1700209062.784,-51.270,-35.156,-24.902,-50.781,0.000
1700209062.788,-50.293,-33.203,-23.926,-45.410,0.000
1700209062.792,-20.020,-31.738,-23.438,-31.738,0.000
1700209062.796,-20.508,-39.551,-22.461,-33.203,0.000
1700209062.800,-55.664,-41.016,-23.926,-52.246,0.000
1700209062.804,-59.570,-41.016,-25.879,-47.363,0.000
1700209062.808,-19.043,-39.062,-24.414,-29.297,0.000
1700209062.812,-15.137,-37.109,-20.508,-25.391,0.000
1700209062.816,-51.758,-34.180,-24.902,-38.086,0.000
1700209062.820,-68.359,-32.227,-26.855,-55.176,0.000
1700209062.823,-41.504,-32.715,-23.438,-39.062,0.000
1700209062.827,-19.531,-31.738,-24.414,-31.738,0.000
1700209062.831,-38.574,-33.691,-22.949,-44.434,0.000
1700209062.835,-70.312,-38.086,-27.344,-57.617,0.000
1700209062.839,-49.316,-38.086,-32.715,-50.293,0.000
1700209062.843,-3.906,-35.645,-26.367,-18.066,0.000
1700209062.847,-25.391,-37.109,-21.484,-30.273,0.000
1700209062.851,-62.012,-47.852,-22.949,-59.570,0.000
1700209062.855,-48.828,-49.805,-23.438,-49.805,0.000
1700209062.859,-14.648,-34.668,-25.879,-32.715,0.000
1700209062.863,-13.672,-32.227,-29.297,-38.086,0.000
1700209062.866,-54.199,-38.086,-25.391,-40.039,0.000
1700209062.870,-59.570,-36.621,-20.508,-37.598,0.000
1700209062.874,-7.324,-31.738,-19.531,-13.672,0.000
1700209062.878,-2.930,-36.133,-20.508,-12.695,0.000
1700209062.882,-45.898,-37.598,-23.926,-41.992,0.000
1700209062.886,-59.082,-41.504,-20.020,-43.457,0.000
1700209062.890,-16.602,-43.945,-18.066,-15.137,0.000
1700209062.894,12.695,-39.551,-23.926,-7.324,0.000
1700209062.898,-20.996,-40.527,-20.996,-26.367,0.000
